#Acq. time (s)=	30
#Accumulations=	2
#Range (cm-¹)=	1200...2365
#Windows=	3
#Auto scanning=	Off
#Autofocus=	Off
#Macrospot=	Off
#AutoExposure=	Off
#Spike filter=	Multiple accum.
#Delay time (s)=	2
#Binning=	1
#Readout mode=	Signal
#DeNoise=	Off
#ICS correction=	On
#Dark correction=	Off
#Inst. Process=	Off
#Detector Gain=	Best Dynamic
#Detector ADC=	50 kHz HS
#Detector temperature (°C)=	-60.09
#Instrument=	LabRAM HR Evol
#Detector=	SIN-EM FIVIS
#Objective=	x100_VIS_LWD
#Grating=	1800 (450-850nm)
#ND Filter=	100%
#Laser=	532nm_Edge
#Hole=	100.021
#Temperature=	0
#Range=	Visible
#StageXY=	75x50mm Scan+
#StageZ=	Z motor
#X (µm)=	0
#Y (µm)=	0
#Z (µm)=	-18
#Full time(mm:ss)=	3:18
#Project=	21_11_26
#Sample=	BU02Aw
#Site=	
#Title=	BU02aW-A-FF1-FI02-V_1800 (450-850nm)_532nm_Edge_100%_x100_VIS_LWD_H100um_30sX2
#Remark=	
#Date=	26.11.2021 11:26
#Acquired=	26.11.2021 11:26:23
#Base:Fit=	16.12.2021 16:15:35
#Base:Fit=	16.12.2021 16:18:08
#Base:Sub=	16.12.2021 16:18:08
1202.72	4.12017
1203	5.30638
1203.28	1.02444
1203.56	12.8281
1203.84	0.931488
1204.11	7.34901
1204.39	4.09203
1204.67	7.31657
1204.95	-4.50592
1205.23	-2.37491
1205.5	8.33708
1205.78	10.4447
1206.06	1.80925
1206.34	2.83715
1206.61	0.646057
1206.89	8.10397
1207.17	5.90963
1207.45	-2.70429
1207.73	-0.596664
1208	5.79206
1208.28	4.69008
1208.56	4.65446
1208.84	-0.738564
1209.11	-0.779884
1209.39	6.66365
1209.67	5.56046
1209.95	1.25507
1210.23	4.42892
1210.5	-3.09561
1210.78	6.46347
1211.06	4.26762
1211.34	8.48364
1211.61	-0.115318
1211.89	-1.23547
1212.17	2.96954
1212.45	-3.48898
1212.72	1.78652
1213	-2.53224
1213.28	0.605949
1213.56	0.553902
1213.83	1.57093
1214.11	-0.612968
1214.39	3.60776
1214.67	0.375076
1214.94	4.59245
1215.22	1.35487
1215.5	0.243713
1215.78	3.38933
1216.05	8.66047
1216.33	4.33757
1216.61	3.20069
1216.89	0.995041
1217.16	3.04462
1217.44	6.16129
1217.72	-4.53354
1218	-1.4166
1218.27	2.76363
1218.55	-2.6117
1218.83	5.81238
1219.1	-0.616356
1219.38	3.56979
1219.66	-8.16213
1219.94	-2.92015
1220.21	-4.0479
1220.49	1.19744
1220.77	-0.979904
1221.04	2.14114
1221.32	6.31837
1221.6	0.945251
1221.88	-4.42654
1222.15	-1.32533
1222.43	2.82571
1222.71	-1.50348
1222.98	1.57651
1223.26	-0.634537
1223.54	1.38693
1223.81	-3.9897
1224.09	-3.01883
1224.37	-3.10551
1224.65	-1.07391
1224.92	-2.2066
1225.2	-2.27982
1225.48	-4.45728
1225.76	1.82048
1226.03	1.76319
1226.31	-0.40464
1226.59	-3.64213
1226.86	2.62169
1227.14	-2.73691
1227.42	-1.76017
1227.69	-6.08305
1227.97	-1.9983
1228.25	-0.00192261
1228.52	0.942024
1228.8	-1.29904
1229.08	-0.370987
1229.35	-2.54713
1229.63	-5.60361
1229.91	-3.41968
1230.18	3.82771
1230.46	1.57839
1230.74	-1.6778
1231.01	0.366333
1231.29	1.30543
1231.57	-5.21497
1231.84	-4.22273
1232.12	-5.34605
1232.4	0.884995
1232.67	-1.29673
1232.95	-0.319527
1233.23	6.9585
1233.5	1.6263
1233.78	3.65308
1234.06	-3.76852
1234.33	7.72196
1234.61	-2.8495
1234.89	-8.16609
1235.16	-5.07491
1235.44	-3.0396
1235.71	1.09882
1235.99	-1.06773
1236.27	-0.0834732
1236.54	-1.2094
1236.82	-3.39435
1237.1	-3.47894
1237.37	2.73741
1237.65	0.536827
1237.93	1.48651
1238.2	2.43558
1238.48	6.53171
1238.76	2.23272
1239.03	3.18694
1239.31	5.1968
1239.58	-3.27515
1239.86	-2.30798
1240.14	0.758217
1240.41	-3.51076
1240.69	-5.68114
1240.97	-3.65643
1241.24	-2.678
1241.52	-2.7484
1241.79	-0.732117
1242.07	1.27686
1242.35	7.48202
1242.62	3.21843
1242.9	-2.08999
1243.18	12.5211
1243.45	5.12175
1243.73	1.90272
1244	2.87907
1244.28	0.714691
1244.56	4.83418
1244.83	6.85262
1245.11	-2.66166
1245.39	3.53737
1245.66	2.39709
1245.94	6.48705
1246.21	6.38712
1246.49	-2.07121
1246.76	2.03778
1247.04	5.10654
1247.32	6.07993
1247.59	1.81485
1247.87	5.92871
1248.14	-1.47694
1248.42	8.88484
1248.7	7.75124
1248.97	6.63046
1249.25	1.33549
1249.52	7.54733
1249.8	5.37952
1250.08	7.39848
1250.35	3.14602
1250.63	14.5618
1250.9	10.2872
1251.18	11.2434
1251.45	3.84194
1251.73	1.66914
1252.01	10.9881
1252.28	6.72568
1252.56	8.73067
1252.83	5.51433
1253.11	9.604
1253.39	3.25798
1253.66	-2.03486
1253.94	4.15984
1254.21	6.19363
1254.49	5.09921
1254.76	4.00697
1255.04	11.2577
1255.31	4.92676
1255.59	6.95629
1255.87	2.71384
1256.14	6.82165
1256.42	10.9383
1256.69	2.52612
1256.97	3.51836
1257.24	6.59206
1257.52	6.52428
1257.79	9.58163
1258.07	17.8646
1258.35	16.7501
1258.62	30.2526
1258.9	46.8819
1259.17	39.484
1259.45	37.332
1259.72	33.109
1260	14.2735
1260.27	25.7401
1260.55	25.6524
1260.82	24.5233
1261.1	33.8172
1261.37	36.8596
1261.65	49.2985
1261.92	40.9124
1262.2	58.7126
1262.48	61.9733
1262.75	75.6055
1263.02	93.0487
1263.3	105.301
1263.58	131.227
1263.85	163.735
1264.13	177.446
1264.4	183.906
1264.68	187.122
1264.95	198.398
1265.23	186.778
1265.5	144.917
1265.78	111.402
1266.05	83.1022
1266.33	69.4648
1266.6	60.0182
1266.88	44.3088
1267.15	43.2348
1267.43	37.9843
1267.7	29.5987
1267.98	28.534
1268.25	22.2407
1268.53	25.3776
1268.8	21.1774
1269.08	18.0055
1269.35	20.0681
1269.63	20.0321
1269.9	16.8343
1270.18	27.2398
1270.45	17.7339
1270.73	26.041
1271	24.9215
1271.28	26.9496
1271.55	25.8496
1271.83	35.2066
1272.1	18.4276
1272.38	29.9191
1272.65	24.6719
1272.93	17.3374
1273.2	25.7005
1273.47	22.5422
1273.75	25.6719
1274.03	22.5125
1274.3	22.4984
1274.57	26.6697
1274.85	17.1929
1275.12	26.5882
1275.4	21.3036
1275.67	23.3732
1275.95	31.7445
1276.22	30.676
1276.5	15.9697
1276.77	24.3479
1277.05	18.0304
1277.32	37.9607
1277.6	31.6506
1277.87	29.5406
1278.14	26.3783
1278.42	33.7223
1278.69	32.6575
1278.97	34.7588
1279.24	44.21
1279.52	57.8726
1279.79	60.9868
1280.07	58.8381
1280.34	67.202
1280.61	73.4741
1280.89	100.801
1281.16	120.772
1281.44	133.418
1281.71	175.554
1281.99	228.191
1282.26	309.204
1282.53	399.744
1282.81	581.909
1283.08	795.457
1283.36	1111.69
1283.63	1490.11
1283.91	2105.29
1284.18	2656.89
1284.45	3200.82
1284.73	3524.7
1285	3254.52
1285.28	2551.61
1285.55	1818.34
1285.83	1181.74
1286.1	740.598
1286.37	474.322
1286.65	346.871
1286.92	222.528
1287.2	188.81
1287.47	148.764
1287.75	124.498
1288.02	98.1279
1288.29	86.5119
1288.57	73.8617
1288.84	69.6369
1289.12	70.6811
1289.39	55.9489
1289.66	51.7443
1289.94	48.5925
1290.21	44.3897
1290.49	37.021
1290.76	41.2174
1291.03	39.0809
1291.31	30.6322
1291.58	37.9876
1291.86	19.0134
1292.13	30.5799
1292.4	29.5135
1292.68	24.2409
1292.95	24.2213
1293.22	23.1468
1293.5	23.1398
1293.77	27.377
1294.05	14.7642
1294.32	20.0673
1294.59	26.3959
1294.87	12.677
1295.14	22.1504
1295.42	16.8869
1295.69	17.9758
1295.96	18.0233
1296.24	12.8063
1296.51	17.0665
1296.79	22.3548
1297.06	12.8375
1297.33	14.9343
1297.61	19.1378
1297.88	19.111
1298.15	6.40683
1298.43	8.48995
1298.7	8.49644
1298.97	12.7092
1299.25	6.35419
1299.52	9.50578
1299.79	9.48785
1300.07	10.54
1300.34	4.22033
1300.62	9.50716
1300.89	9.50866
1301.16	13.7269
1301.44	7.3881
1301.71	13.7279
1301.98	0.0165558
1302.25	10.5928
1302.53	7.43336
1302.8	6.38144
1303.08	0.0444183
1303.35	10.604
1303.62	1.09116
1303.9	9.52669
1304.17	5.30336
1304.44	5.30953
1304.72	6.37022
1304.99	2.1502
1305.26	-1.02254
1305.54	-2.0872
1305.81	2.12174
1306.08	4.21913
1306.35	4.20433
1306.63	5.24879
1306.9	6.30312
1307.18	5.25631
1307.45	5.27274
1307.72	-1.04419
1308	-3.14555
1308.27	0.0276184
1308.54	-1.01254
1308.81	-3.11661
1309.09	1.11771
1309.36	-0.967468
1309.63	-5.16451
1309.91	3.30095
1310.18	-4.06591
1310.45	2.27661
1310.73	6.50518
1311	1.24242
1311.27	3.37056
1311.55	-1.88734
1311.82	4.46356
1312.09	0.26371
1312.37	9.79501
1312.64	5.60108
1312.91	10.903
1313.18	-0.699371
1313.46	-2.80726
1313.73	3.54115
1314	-5.94955
1314.28	2.50676
1314.55	3.58037
1314.82	0.437531
1315.09	0.464912
1315.37	-0.561028
1315.64	3.69261
1315.91	0.555923
1316.18	7.98106
1316.46	6.9417
1316.73	8.01329
1317	-5.69832
1317.28	4.8819
1317.55	3.84801
1317.82	2.82689
1318.09	2.85822
1318.37	-4.50763
1318.64	-3.42445
1318.91	-6.56813
1319.18	4.02109
1319.46	2.98682
1319.73	-2.27378
1320	1.97393
1320.28	-4.33317
1320.55	3.08891
1320.82	8.39238
1321.09	4.18065
1321.37	-4.26005
1321.64	2.07903
1321.91	-2.14205
1322.18	-6.34951
1322.46	-2.1235
1322.73	0.00350189
1323	4.23925
1323.27	1.0922
1323.55	-3.11171
1323.82	-0.963829
1324.09	11.7233
1324.36	2.26538
1324.64	2.29353
1324.91	-0.837372
1325.18	-5.02605
1325.45	0.283318
1325.73	4.51082
1326	1.34245
1326.27	-3.93923
1326.54	-3.96236
1326.81	-1.84809
1327.09	2.38738
1327.36	2.44971
1327.63	6.75246
1327.9	-0.555222
1328.18	-0.491508
1328.45	-3.58723
1328.72	-4.57557
1328.99	7.08984
1329.27	-2.3614
1329.54	-3.39009
1329.81	8.26047
1330.08	-5.42183
1330.35	1.99373
1330.63	-5.36346
1330.9	4.15147
1331.17	1.00576
1331.44	-7.41333
1331.71	-6.35005
1331.99	3.13413
1332.26	6.30215
1332.53	-3.15603
1332.8	6.32958
1333.07	2.13151
1333.35	-3.11556
1333.62	3.2059
1333.89	2.16985
1334.16	-3.06599
1334.43	3.25476
1334.71	4.32399
1334.98	1.19556
1335.25	-0.878906
1335.52	2.29556
1335.79	-6.07063
1336.07	1.30128
1336.34	8.67198
1336.61	2.41019
1336.88	6.63618
1337.15	-8.00698
1337.43	1.46421
1337.7	-4.78747
1337.97	-11.0397
1338.24	-0.53418
1338.51	0.53968
1338.78	-6.75878
1339.06	-3.58405
1339.33	6.92436
1339.6	-5.59729
1339.87	-2.4069
1340.14	2.87982
1340.42	2.92857
1340.69	6.12041
1340.96	0.933998
1341.23	-0.0675659
1341.5	2.07084
1341.77	1.06558
1342.04	3.19858
1342.32	-7.23529
1342.59	0.124153
1342.86	-1.94131
1343.13	3.3175
1343.4	5.44689
1343.67	2.35209
1343.95	-4.92204
1344.22	1.40206
1344.49	1.45356
1344.76	3.59548
1345.03	3.63821
1345.3	-3.64407
1345.58	-4.65553
1345.85	3.73193
1346.12	1.67247
1346.39	1.69617
1346.66	1.70716
1346.93	-0.354301
1347.2	-4.4992
1347.47	4.91601
1347.75	5.98756
1348.02	9.15181
1348.29	-5.39948
1348.56	1.9427
1348.83	-0.0944443
1349.1	9.32455
1349.37	-0.014473
1349.65	5.23177
1349.92	2.14585
1350.19	0.102722
1350.46	1.18398
1350.73	4.34624
1351	1.25857
1351.27	15.858
1351.54	8.61615
1351.81	0.329369
1352.09	-5.8605
1352.36	-4.76648
1352.63	5.69724
1352.9	1.61051
1353.17	3.77192
1353.44	10.0851
1353.71	8.13333
1353.98	0.972778
1354.25	6.1624
1354.53	1.93267
1354.8	11.2577
1355.07	9.24659
1355.34	12.4284
1355.61	9.3378
1355.88	16.6494
1356.15	5.31087
1356.42	1.21919
1356.69	5.41529
1356.96	5.46514
1357.24	11.7478
1357.51	7.6433
1357.78	1.46045
1358.05	1.50675
1358.32	17.1224
1358.59	4.71
1358.86	13.0565
1359.13	15.1722
1359.4	3.80374
1359.67	18.3712
1359.94	8.04864
1360.22	19.4903
1360.49	16.4123
1360.76	8.15705
1361.03	7.16518
1361.3	7.2186
1361.57	14.5285
1361.84	9.40633
1362.11	17.7479
1362.38	17.7973
1362.65	15.7766
1362.92	14.793
1363.19	5.53235
1363.46	12.8467
1363.73	7.74506
1364	17.1387
1364.28	25.4988
1364.55	28.6668
1364.82	16.2917
1365.09	30.8434
1365.36	25.7086
1365.63	36.1008
1365.9	37.1713
1366.17	28.9294
1366.44	26.899
1366.71	22.7994
1366.98	23.8674
1367.25	26.9966
1367.52	23.9426
1367.79	20.8952
1368.06	19.937
1368.33	32.411
1368.6	21.1096
1368.87	32.5501
1369.15	34.6872
1369.41	56.4715
1369.68	112.38
1369.95	157.911
1370.23	163.117
1370.5	116.64
1370.77	69.1183
1371.04	53.6646
1371.31	33.0436
1371.58	23.7825
1371.85	36.2024
1372.12	27.9664
1372.39	26.9597
1372.66	34.2073
1372.93	36.3048
1373.2	33.2576
1373.47	35.3689
1373.74	32.3274
1374.01	32.3807
1374.28	30.3753
1374.55	31.4626
1374.82	34.6109
1375.09	33.6368
1375.36	32.6578
1375.63	46.1173
1375.9	38.9854
1376.17	45.2286
1376.44	48.3908
1376.71	39.1547
1376.98	39.1921
1377.25	44.3663
1377.52	48.4985
1377.79	46.5205
1378.06	53.8217
1378.33	45.6987
1378.6	53.0343
1378.87	51.1065
1379.14	57.3786
1379.41	64.6559
1379.68	60.5797
1379.95	68.8717
1380.22	70.9683
1380.49	79.2127
1380.76	80.1854
1381.03	79.1519
1381.3	76.0757
1381.57	74.1081
1381.84	84.4187
1382.11	89.5507
1382.38	94.6726
1382.65	99.8029
1382.92	96.7263
1383.19	108.015
1383.46	126.495
1383.73	132.656
1384	144.99
1384.27	164.504
1384.54	174.83
1384.81	181.069
1385.08	230.406
1385.34	270.561
1385.61	325.149
1385.88	405.385
1386.15	533.895
1386.42	686.014
1386.69	1000.51
1386.96	1525.56
1387.23	2354.51
1387.5	3908.56
1387.77	5888.24
1388.04	7292.53
1388.31	7120.74
1388.58	5518.65
1388.85	3490.02
1389.12	2032.28
1389.39	1174.31
1389.66	729.877
1389.93	502.065
1390.2	342.821
1390.46	288.201
1390.73	225.587
1391	176.425
1391.27	155.892
1391.54	144.664
1391.81	131.388
1392.08	115.015
1392.35	93.5226
1392.62	100.72
1392.89	92.5659
1393.16	78.2766
1393.43	73.2066
1393.7	80.4223
1393.97	64.0989
1394.23	75.4099
1394.5	63.1856
1394.77	63.2426
1395.04	58.1862
1395.31	54.1718
1395.58	54.2574
1395.85	60.4783
1396.12	55.4313
1396.39	49.3507
1396.66	54.5231
1396.93	46.3862
1397.2	46.4364
1397.46	41.3638
1397.73	38.3396
1398	47.5996
1398.27	37.4346
1398.54	38.5292
1398.81	46.7905
1399.08	46.8627
1399.35	34.6557
1399.62	37.8075
1399.89	39.9299
1400.16	41.0281
1400.42	40.0679
1400.69	48.3362
1400.96	34.0947
1401.23	43.3873
1401.5	45.4949
1401.77	49.6691
1402.04	38.4665
1402.31	40.6151
1402.58	43.8151
1402.84	47.0234
1403.11	45.0853
1403.38	41.0788
1403.65	46.2918
1403.92	52.5165
1404.19	41.2645
1404.46	45.3709
1404.73	47.503
1404.99	45.5041
1405.26	49.6574
1405.53	45.5975
1405.8	54.8689
1406.07	57.9867
1406.34	66.2305
1406.61	73.4547
1406.87	71.4564
1407.14	99.2003
1407.41	93.1248
1407.68	116.779
1407.95	141.458
1408.22	164.089
1408.49	201.078
1408.76	254.478
1409.02	333.526
1409.29	366.444
1409.56	394.236
1409.83	377.924
1410.1	334.927
1410.37	269.338
1410.63	200.619
1410.9	152.417
1411.17	108.335
1411.44	88.8855
1411.71	74.576
1411.98	60.276
1412.25	48.0394
1412.51	50.1655
1412.78	42.0604
1413.05	47.3157
1413.32	41.3496
1413.59	36.3381
1413.86	39.4013
1414.12	29.0728
1414.39	27.1029
1414.66	34.408
1414.93	29.3806
1415.2	23.2751
1415.47	27.4449
1415.73	23.3989
1416	25.5147
1416.27	15.3141
1416.54	22.5692
1416.81	19.5565
1417.07	15.5161
1417.34	18.6669
1417.61	17.7085
1417.88	22.9141
1418.15	21.9505
1418.42	13.7909
1418.68	21.0462
1418.95	23.1647
1419.22	25.2798
1419.49	18.1464
1419.76	17.1685
1420.02	11.0476
1420.29	17.2543
1420.56	8.05442
1420.83	23.5005
1421.1	18.407
1421.36	19.4762
1421.63	21.5796
1421.9	20.6156
1422.17	17.6151
1422.44	16.6726
1422.7	16.7565
1422.97	15.8286
1423.24	18.0102
1423.51	18.1383
1423.77	15.9508
1424.04	19.9454
1424.31	22.075
1424.58	18.9774
1424.85	20.0588
1425.11	22.1882
1425.38	21.2774
1425.65	23.3954
1425.92	15.2354
1426.19	23.5248
1426.45	22.5488
1426.72	20.5381
1426.99	15.4454
1427.26	10.3542
1427.52	18.587
1427.79	13.4877
1428.06	11.4699
1428.33	16.6329
1428.59	8.49161
1428.86	8.5471
1429.13	8.60595
1429.4	3.5458
1429.67	9.75274
1429.93	6.74472
1430.2	3.73942
1430.47	7.91012
1430.74	12.0786
1431	10.1039
1431.27	19.4209
1431.54	4.10892
1431.81	5.19991
1432.07	8.33228
1432.34	8.37288
1432.61	7.38344
1432.87	8.45163
1433.14	9.50909
1433.41	1.33431
1433.68	10.5828
1433.95	5.48574
1434.21	3.47353
1434.48	8.6388
1434.75	6.67385
1435.01	9.81345
1435.28	7.81872
1435.55	4.79629
1435.82	10.9943
1436.08	11.0424
1436.35	10.0643
1436.62	-0.135227
1436.89	7.08147
1437.15	6.10114
1437.42	11.2673
1437.69	-0.975262
1437.95	0.0924797
1438.22	7.3082
1438.49	7.36176
1438.76	6.39737
1439.02	9.52631
1439.29	8.55379
1439.56	5.53312
1439.82	9.69115
1440.09	7.70627
1440.36	4.69822
1440.63	1.67885
1440.89	6.85862
1441.16	3.83181
1441.43	5.93472
1441.69	5.97801
1441.96	2.93979
1442.23	-0.0932541
1442.49	5.09355
1442.76	4.11772
1443.03	0.0751228
1443.3	3.19163
1443.56	4.25395
1443.83	4.29208
1444.1	3.3076
1444.36	4.3772
1444.63	5.4532
1444.9	0.390671
1445.16	3.52845
1445.43	4.62043
1445.7	4.66159
1445.97	6.75337
1446.23	4.74209
1446.5	4.78276
1446.77	2.77222
1447.03	-0.263855
1447.3	4.90433
1447.57	1.86715
1447.83	2.92982
1448.1	-0.107063
1448.37	1.98751
1448.63	3.06805
1448.9	5.17721
1449.17	3.17393
1449.43	1.16582
1449.7	-0.846138
1449.97	5.34299
1450.23	6.40165
1450.5	-1.76633
1450.77	6.47258
1451.03	2.41117
1451.3	5.52415
1451.57	-1.61204
1451.83	1.49925
1452.1	-0.512878
1452.37	-5.59755
1452.63	3.66313
1452.9	-0.39204
1453.17	1.70185
1453.43	1.75066
1453.7	-0.251709
1453.97	-3.2842
1454.23	5.97629
1454.5	4.98939
1454.77	1.9566
1455.03	-2.10122
1455.3	-3.08672
1455.56	1.04889
1455.83	-3.00805
1456.1	-6.03273
1456.36	-1.88801
1456.63	4.30162
1456.9	-2.83763
1457.16	-0.757576
1457.43	-4.82501
1457.7	0.33316
1457.96	-1.68001
1458.23	1.43001
1458.49	1.46936
1458.76	-7.71009
1459.03	-3.57079
1459.29	4.66672
1459.56	-0.415604
1459.82	4.74683
1460.09	-1.36472
1460.36	0.718712
1460.62	-1.29637
1460.89	6.93181
1461.16	0.817097
1461.42	0.847137
1461.69	3.94904
1461.95	-3.18943
1462.22	-4.18499
1462.49	3.0069
1462.75	-6.17799
1463.02	-0.0134964
1463.28	4.10153
1463.55	1.05564
1463.82	-0.96508
1464.08	-1.95351
1464.35	-2.92392
1464.61	0.205246
1464.88	-4.85727
1465.15	0.321854
1465.41	-2.75519
1465.68	-3.83653
1465.94	-0.78178
1466.21	4.34996
1466.48	0.319515
1466.74	-2.71349
1467.01	4.43969
1467.27	-0.634865
1467.54	2.46498
1467.8	-1.58561
1468.07	5.58514
1468.34	2.55575
1468.6	1.56798
1468.87	-8.60049
1469.13	1.62961
1469.4	-0.382881
1469.67	1.68273
1469.93	8.84155
1470.2	0.70438
1470.46	-1.3121
1470.73	-4.34431
1470.99	-5.33712
1471.26	-1.23364
1471.53	6.94027
1471.79	1.86752
1472.06	-1.16388
1472.32	0.900101
1472.59	2.96558
1472.85	-5.15092
1473.12	-1.04883
1473.39	4.06844
1473.65	-4.05344
1473.92	3.0943
1474.18	-0.953266
1474.45	1.10826
1474.71	4.19092
1474.98	-4.93382
1475.24	1.2059
1475.51	-6.90659
1475.78	-1.78976
1476.04	-0.747623
1476.31	1.30944
1476.57	0.315445
1476.84	-4.74755
1477.1	1.37665
1477.37	-6.74056
1477.63	0.40276
1477.9	-2.62193
1478.16	0.455574
1478.43	1.49402
1478.69	4.56092
1478.96	-0.502426
1479.22	-4.54821
1479.49	-0.464577
1479.76	0.568565
1480.02	4.64699
1480.29	0.5994
1480.55	-3.45401
1480.82	2.64766
1481.08	-3.42524
1481.35	1.66958
1481.61	-1.35702
1481.88	-1.3263
1482.14	-2.30691
1482.41	-5.31668
1482.67	-0.205738
1482.94	0.84322
1483.2	-2.1775
1483.47	-0.115376
1483.73	-0.0868797
1484	3.99999
1484.26	0.976284
1484.53	-0.0359001
1484.79	-0.0408707
1485.06	-3.11313
1485.32	-4.16811
1485.59	1.90173
1485.85	-0.138134
1486.12	2.03349
1486.38	-0.967655
1486.65	-4.97978
1486.91	-0.956028
1487.18	-0.906498
1487.44	-2.9024
1487.71	1.1582
1487.97	-1.87018
1488.24	-0.8419
1488.5	2.20991
1488.77	-1.82918
1489.03	-1.81924
1489.3	0.217228
1489.56	3.26879
1489.83	0.250607
1490.09	-0.743023
1490.36	-2.74521
1490.62	-1.71291
1490.89	-2.70949
1491.15	1.34708
1491.42	-2.68703
1491.68	1.37326
1491.95	-0.630424
1492.21	2.42297
1492.48	2.44581
1492.74	0.442291
1493	-1.56237
1493.27	3.51062
1493.53	-1.52422
1493.8	-2.51887
1494.06	-1.49028
1494.33	-6.52432
1494.59	-2.45831
1494.86	6.66407
1495.12	-3.42879
1495.39	-2.4068
1495.65	-5.43399
1495.92	0.628841
1496.18	2.65204
1496.45	-0.368507
1496.71	-0.35733
1496.97	-1.35491
1497.24	-1.34373
1497.5	3.72017
1497.77	-1.30886
1498.03	1.73359
1498.3	-1.27779
1498.56	-3.27832
1498.82	-3.25994
1499.09	0.795937
1499.35	-3.22195
1499.62	-3.20186
1499.88	2.87592
1500.15	-2.15047
1500.41	5.9446
1500.68	-0.0969009
1500.94	-1.09188
1501.2	3.97023
1501.47	4.98977
1501.73	-2.06978
1502	2.98877
1502.26	-3.05196
1502.52	0.997993
1502.79	-1.00956
1503.05	4.03901
1503.32	3.03466
1503.58	0.0179253
1503.85	3.04844
1504.11	-1.97843
1504.37	-1.95898
1504.64	-1.94213
1504.9	5.13179
1505.17	1.10997
1505.43	0.110474
1505.7	-2.90771
1505.96	-0.891666
1506.22	6.15696
1506.49	1.12952
1506.75	1.14157
1507.02	-2.8725
1507.28	-6.88264
1507.54	-0.821667
1507.81	-1.81392
1508.07	-4.82436
1508.34	-1.79177
1508.6	4.26384
1508.86	-2.77552
1509.13	-3.76885
1509.39	-3.75563
1509.66	0.286621
1509.92	0.298683
1510.18	-0.691311
1510.45	1.33964
1510.71	6.3797
1510.98	2.35069
1511.24	0.335567
1511.5	-1.68102
1511.77	-2.69595
1512.03	-0.697983
1512.29	0.292492
1512.56	0.27837
1512.82	-3.75047
1513.08	-0.738926
1513.35	1.26858
1513.61	3.27704
1513.88	0.271694
1514.14	0.294193
1514.4	0.324398
1514.67	0.339661
1514.93	-0.660439
1515.2	-0.661793
1515.46	1.34258
1515.72	-4.68296
1515.99	-4.68723
1516.25	3.33331
1516.51	6.34012
1516.78	6.34396
1517.04	-1.673
1517.3	0.338276
1517.57	2.35128
1517.83	-3.65465
1518.09	-0.634155
1518.36	-0.616184
1518.62	3.40699
1518.88	6.42861
1519.15	-2.58724
1519.41	-1.57144
1519.67	1.45053
1519.94	-2.55186
1520.2	6.48467
1520.47	-1.53803
1520.73	-4.54293
1520.99	4.4962
1521.26	3.50614
1521.52	5.52538
1521.78	3.5281
