#Acq. time (s)=	30
#Accumulations=	2
#Range (cm-¹)=	1200...2365
#Windows=	3
#Auto scanning=	Off
#Autofocus=	Off
#Macrospot=	Off
#AutoExposure=	Off
#Spike filter=	Multiple accum.
#Delay time (s)=	2
#Binning=	1
#Readout mode=	Signal
#DeNoise=	Off
#ICS correction=	On
#Dark correction=	Off
#Inst. Process=	Off
#Detector Gain=	Best Dynamic
#Detector ADC=	50 kHz HS
#Detector temperature (°C)=	-60.09
#Instrument=	LabRAM HR Evol
#Detector=	SIN-EM FIVIS
#Objective=	x100_VIS_LWD
#Grating=	1800 (450-850nm)
#ND Filter=	100%
#Laser=	532nm_Edge
#Hole=	100.021
#Temperature=	0
#Range=	Visible
#StageXY=	75x50mm Scan+
#StageZ=	Z motor
#X (µm)=	0
#Y (µm)=	0
#Z (µm)=	-11.5
#Full time(mm:ss)=	3:13
#Project=	21_11_26
#Sample=	BU02Aw
#Site=	
#Title=	BU02aW-A-FF1-FI03-V_1800 (450-850nm)_532nm_Edge_100%_x100_VIS_LWD_H100um_30sX2
#Remark=	
#Date=	26.11.2021 11:11
#Acquired=	26.11.2021 11:11:48
#Base:Fit=	16.12.2021 16:15:35
#Base:Fit=	16.12.2021 16:18:23
#Base:Sub=	16.12.2021 16:18:24
1202.72	4.65473
1203	-0.5149
1203.28	3.90997
1203.56	1.79234
1203.84	-0.337341
1204.11	-3.51879
1204.39	-0.242302
1204.67	5.21707
1204.95	-4.36967
1205.23	2.14249
1205.5	7.55982
1205.78	-0.994438
1206.06	0.115013
1206.34	4.43998
1206.61	-4.10997
1206.89	-3.00515
1207.17	-0.830864
1207.45	6.7021
1207.73	-0.751343
1208	-0.707222
1208.28	0.41227
1208.56	6.87756
1208.84	-1.64819
1209.11	-5.88993
1209.39	2.70241
1209.67	7.02457
1209.95	-4.68511
1210.23	4.98236
1210.5	-1.39605
1210.78	1.8269
1211.06	0.775612
1211.34	6.1358
1211.61	4.01613
1211.89	-3.4313
1212.17	4.04794
1212.45	6.19135
1212.72	-0.184212
1213	6.22663
1213.28	7.30615
1213.56	2.00321
1213.83	-4.35791
1214.11	0.985855
1214.39	-3.23283
1214.67	2.12796
1214.94	0.0334015
1215.22	-4.1932
1215.5	7.54629
1215.78	-6.26672
1216.05	-3.04958
1216.33	1.21638
1216.61	6.53466
1216.89	4.39775
1217.16	6.51625
1217.44	3.32708
1217.72	-7.29556
1218	4.38887
1218.27	6.51521
1218.55	0.148308
1218.83	-3.03177
1219.1	8.65177
1219.38	-6.19102
1219.66	4.42997
1219.94	1.25396
1220.21	-10.4115
1220.49	-4.03442
1220.77	-5.08021
1221.04	-2.94934
1221.32	0.23748
1221.6	-2.94528
1221.88	1.29303
1222.15	0.220757
1222.43	10.7938
1222.71	-1.94465
1222.98	1.2006
1223.26	5.40194
1223.54	-0.973473
1223.81	0.0576096
1224.09	5.3187
1224.37	4.23798
1224.65	-2.11362
1224.92	-4.23604
1225.2	-4.24294
1225.48	-4.24263
1225.76	-2.12023
1226.03	5.27978
1226.31	3.17937
1226.59	0.00708008
1226.86	5.27987
1227.14	-1.07084
1227.42	-7.41849
1227.69	5.20113
1227.97	1.95612
1228.25	-1.25571
1228.52	1.85414
1228.8	-4.53661
1229.08	-3.54733
1229.35	3.79639
1229.63	-4.43253
1229.91	-3.22559
1230.18	-6.46748
1230.46	-0.221649
1230.74	-5.52361
1231.01	2.90269
1231.29	4.95122
1231.57	-1.52635
1231.84	3.73218
1232.12	3.72037
1232.4	3.70689
1232.67	1.58464
1232.95	-4.7326
1233.23	0.504196
1233.5	0.484207
1233.78	2.57039
1234.06	1.51127
1234.33	-4.79847
1234.61	0.448669
1234.89	3.59869
1235.16	1.49577
1235.44	-0.614815
1235.71	3.5821
1235.99	-1.68002
1236.27	1.46476
1236.54	0.395821
1236.82	2.47202
1237.1	-1.76207
1237.37	-1.79604
1237.65	-7.09212
1237.93	3.36596
1238.2	-2.98004
1238.48	-4.07514
1238.76	0.07547
1239.03	0.0348969
1239.31	9.43909
1239.58	5.21408
1239.86	-5.29716
1240.14	-8.46643
1240.41	0.945
1240.69	-5.36469
1240.97	-8.5277
1241.24	4.03465
1241.52	0.872078
1241.79	6.0849
1242.07	3.95213
1242.35	0.777481
1242.62	-1.33851
1242.9	1.7885
1243.18	2.82617
1243.45	-0.329803
1243.73	-0.353172
1244	-6.66443
1244.28	0.656204
1244.56	2.72916
1244.83	-3.58862
1245.11	2.66985
1245.39	-5.75451
1245.66	-0.558014
1245.94	-4.79786
1246.21	0.388519
1246.49	-2.78683
1246.76	5.55716
1247.04	8.67399
1247.32	2.36807
1247.59	2.33714
1247.87	9.63773
1248.14	-1.90742
1248.42	14.777
1248.7	7.41306
1248.97	6.33859
1249.25	3.18172
1249.52	3.16354
1249.8	1.0416
1250.08	5.19787
1250.35	2.03654
1250.63	-3.23372
1250.9	4.03966
1251.18	-0.184517
1251.45	2.90986
1251.73	-0.263809
1252.01	-0.302429
1252.28	1.74699
1252.56	-2.46965
1252.83	-4.59705
1253.11	-0.462692
1253.39	3.67165
1253.66	-2.62242
1253.94	5.70124
1254.21	2.5592
1254.49	1.50621
1254.76	3.58739
1255.04	2.52576
1255.31	6.6778
1255.59	-0.649918
1255.87	3.50245
1256.14	2.42953
1256.42	9.71872
1256.69	5.52397
1256.97	7.60107
1257.24	1.31364
1257.52	15.908
1257.79	6.47086
1258.07	7.48311
1258.35	8.49637
1258.62	16.8175
1258.9	24.0904
1259.17	14.6482
1259.45	24.0152
1259.72	10.434
1260	12.5117
1260.27	17.7486
1260.55	13.5232
1260.82	20.7843
1261.1	17.5937
1261.37	20.6762
1261.65	20.6366
1261.92	26.8873
1262.2	23.8278
1262.48	40.6706
1262.75	48.0478
1263.02	54.081
1263.3	64.3281
1263.58	86.1366
1263.85	85.2343
1264.13	110.409
1264.4	126.25
1264.68	115.872
1264.95	117.818
1265.23	104.16
1265.5	67.5582
1265.78	53.9384
1266.05	50.7582
1266.33	34.0187
1266.6	35.0511
1266.88	30.8659
1267.15	15.1872
1267.43	9.96168
1267.7	19.3782
1267.98	19.3876
1268.25	22.5402
1268.53	7.91001
1268.8	14.2067
1269.08	12.1111
1269.35	20.4886
1269.63	10.0044
1269.9	16.2664
1270.18	14.1313
1270.45	22.4611
1270.73	18.2327
1271	14.0037
1271.28	20.2484
1271.55	14.9915
1271.83	19.1464
1272.1	24.3686
1272.38	16.0029
1272.65	7.63802
1272.93	14.9869
1273.2	18.1383
1273.47	12.9088
1273.75	11.8698
1274.03	13.9753
1274.3	12.9362
1274.57	9.78957
1274.85	20.268
1275.12	16.0531
1275.4	16.0385
1275.67	16.0346
1275.95	24.4297
1276.22	13.9402
1276.5	19.1974
1276.77	12.9029
1277.05	20.2579
1277.32	18.1584
1277.6	21.3212
1277.87	24.4855
1278.14	30.8038
1278.42	23.4557
1278.69	22.4117
1278.97	23.4811
1279.24	30.8492
1279.52	25.5961
1279.79	35.0462
1280.07	42.3886
1280.34	46.5698
1280.61	49.7092
1280.89	58.1233
1281.16	73.9048
1281.44	87.6117
1281.71	105.547
1281.99	137.142
1282.26	179.232
1282.53	236.094
1282.81	346.668
1283.08	483.432
1283.36	667.27
1283.63	933.615
1283.91	1270.55
1284.18	1695.04
1284.45	2046.08
1284.73	2073.65
1285	1772.67
1285.28	1223.65
1285.55	757.494
1285.83	478.197
1286.1	290.794
1286.37	192.932
1286.65	144.482
1286.92	104.425
1287.2	84.4131
1287.47	80.187
1287.75	66.4743
1288.02	58.0241
1288.29	53.7958
1288.57	47.4766
1288.84	41.1625
1289.12	33.801
1289.39	31.7103
1289.66	23.3056
1289.94	35.9588
1290.21	14.9168
1290.49	22.3056
1290.76	14.9297
1291.03	12.8111
1291.31	9.645
1291.58	20.175
1291.86	20.1733
1292.13	19.1159
1292.4	14.904
1292.68	23.3365
1292.95	10.6925
1293.22	11.739
1293.5	14.9043
1293.77	17.0442
1294.05	11.8169
1294.32	13.9675
1294.59	11.8717
1294.87	2.38336
1295.14	9.76117
1295.42	6.61654
1295.69	2.43671
1295.96	8.82033
1296.24	4.66328
1296.51	11.0444
1296.79	2.6024
1297.06	8.95105
1297.33	7.88885
1297.61	7.87809
1297.88	7.86484
1298.15	11.0185
1298.43	2.55154
1298.7	4.67966
1298.97	7.84698
1299.25	8.89435
1299.52	-2.72451
1299.79	1.49182
1300.07	2.55363
1300.34	3.63165
1300.62	7.87158
1300.89	6.82611
1301.16	0.49514
1301.44	8.94687
1301.71	12.1277
1301.98	2.6482
1302.25	-2.61041
1302.53	0.574791
1302.8	2.69953
1303.08	0.595764
1303.35	-0.455688
1303.62	6.93877
1303.9	0.597816
1304.17	-2.56198
1304.44	3.78674
1304.72	0.630539
1304.99	-5.6945
1305.26	-1.46857
1305.54	-1.47057
1305.81	1.68987
1306.08	-1.48165
1306.35	-1.48836
1306.63	-0.436279
1306.9	-1.48469
1307.18	0.638039
1307.45	-0.395432
1307.72	-1.43359
1308	-2.47492
1308.27	10.1958
1308.54	3.88712
1308.81	0.732979
1309.09	-12.9593
1309.36	1.83659
1309.63	-2.35609
1309.91	0.837303
1310.18	-0.193794
1310.45	2.98666
1310.73	-1.22295
1311	-3.3162
1311.27	4.09171
1311.55	-1.16285
1311.82	2.02494
1312.09	5.21637
1312.37	3.13839
1312.64	6.33691
1312.91	1.08212
1313.18	4.26532
1313.46	4.27102
1313.73	2.17612
1314	1.1328
1314.28	-3.07538
1314.55	-3.05535
1314.82	0.136612
1315.09	1.22105
1315.37	-2.97109
1315.64	3.39527
1315.91	3.42776
1316.18	0.291687
1316.46	-1.80238
1316.73	-2.84139
1317	4.57012
1317.28	-2.80222
1317.55	-2.77948
1317.82	3.59195
1318.09	4.6797
1318.37	-6.91159
1318.64	-0.54641
1318.91	1.59217
1319.18	-7.8917
1319.46	-1.53078
1319.73	-0.453125
1320	-5.71322
1320.28	4.88132
1320.55	3.85105
1320.82	0.702522
1321.09	2.82877
1321.37	-7.72416
1321.64	-7.71891
1321.91	-4.54967
1322.18	-0.31604
1322.46	-0.312172
1322.73	-2.40582
1323	6.04729
1323.27	-1.31944
1323.55	1.85546
1323.82	2.94702
1324.09	1.9241
1324.36	5.11712
1324.64	0.925011
1324.91	-5.37196
1325.18	0.981041
1325.45	-1.09369
1325.73	-0.0307693
1326	6.28486
1326.27	-9.53275
1326.54	-3.23877
1326.81	3.08112
1327.09	-0.0512695
1327.36	-7.36097
1327.63	-2.01719
1327.9	-7.22594
1328.18	0.207191
1328.45	-1.83916
1328.72	-1.77744
1328.99	4.60885
1329.27	3.59332
1329.54	-2.71494
1329.81	-4.78495
1330.08	1.57402
1330.35	5.81964
1330.63	3.73142
1330.9	-1.52425
1331.17	6.92488
1331.44	0.607765
1331.71	1.66371
1331.99	0.608376
1332.26	-5.70272
1332.53	-0.426918
1332.8	3.79191
1333.07	4.84916
1333.35	-1.4553
1333.62	-0.395203
1333.89	1.71706
1334.16	0.678078
1334.43	2.79129
1334.71	4.90494
1334.98	-0.328888
1335.25	-5.55753
1335.52	0.759605
1335.79	0.780304
1336.07	0.8022
1336.34	-0.223549
1336.61	0.849525
1336.88	-1.22176
1337.15	1.95082
1337.43	-6.40607
1337.7	2.0099
1337.97	5.18217
1338.24	1.00774
1338.51	-3.16354
1338.78	0.00512695
1339.06	-1.01754
1339.33	5.29451
1339.6	4.28288
1339.87	1.18273
1340.14	-6.10485
1340.42	1.26579
1340.69	-2.8816
1340.96	5.53783
1341.23	1.38593
1341.5	-1.72031
1341.77	2.50191
1342.04	6.72033
1342.32	1.51178
1342.59	3.6277
1342.86	-8.91072
1343.13	0.525826
1343.4	5.78461
1343.67	-0.456917
1343.95	0.626526
1344.22	-8.74634
1344.49	-3.4753
1344.76	0.748749
1345.03	-0.263481
1345.3	-5.46329
1345.58	-2.30222
1345.85	-7.5101
1346.12	7.14026
1346.39	6.10844
1346.66	-2.24297
1346.93	-2.22548
1347.2	-2.20634
1347.47	4.06969
1347.75	-6.33752
1348.02	-0.0537033
1348.29	-2.10609
1348.56	11.4788
1348.83	1.09309
1349.1	-2.00266
1349.37	2.19355
1349.65	6.38725
1349.92	1.20767
1350.19	8.5252
1350.46	8.55317
1350.73	7.5398
1351	1.31874
1351.27	4.46342
1351.54	5.53384
1351.81	4.5164
1352.09	-1.68518
1352.36	7.71583
1352.63	3.60975
1352.9	2.63091
1353.17	5.82067
1353.44	13.1626
1353.71	3.909
1353.98	2.98569
1354.25	1.91403
1354.53	6.00134
1354.8	-2.34967
1355.07	2.89851
1355.34	3.98905
1355.61	8.161
1355.88	6.11349
1356.15	4.1086
1356.42	3.12113
1356.69	1.07185
1356.96	6.30304
1357.24	9.45719
1357.51	4.3018
1357.78	2.26022
1358.05	7.48479
1358.32	6.47819
1358.59	3.39561
1358.86	4.46581
1359.13	5.53297
1359.4	11.787
1359.67	6.63499
1359.94	8.74466
1360.22	2.54888
1360.49	1.53573
1360.76	7.77744
1361.03	3.66458
1361.3	2.66893
1361.57	5.82184
1361.84	12.0802
1362.11	13.1577
1362.38	10.0872
1362.65	9.08909
1362.92	8.09235
1363.19	7.10108
1363.46	9.22413
1363.73	16.535
1364	14.5221
1364.28	21.8316
1364.55	23.9496
1364.82	23.9903
1365.09	24.0272
1365.36	30.2702
1365.63	23.0473
1365.9	29.282
1366.17	14.8187
1366.44	16.9155
1366.71	14.8727
1366.98	15.9287
1367.25	19.0464
1367.52	13.912
1367.79	9.81753
1368.06	23.3128
1368.33	13.0317
1368.6	16.1861
1368.87	12.1045
1369.15	30.7668
1369.41	55.6374
1369.68	84.6464
1369.95	116.726
1370.23	87.8072
1370.5	51.6595
1370.77	21.7073
1371.04	32.0756
1371.31	27.9723
1371.58	17.6647
1371.85	19.7473
1372.12	20.7909
1372.39	23.8984
1372.66	18.7565
1372.93	22.9047
1373.2	27.0602
1373.47	25.034
1373.74	17.8559
1374.01	19.9559
1374.28	26.1789
1374.55	30.3417
1374.82	32.444
1375.09	33.5146
1375.36	36.6399
1375.63	37.7226
1375.9	40.8757
1376.17	36.8009
1376.44	32.7348
1376.71	34.8166
1376.98	35.8688
1377.25	43.0871
1377.52	44.1171
1377.79	36.9766
1378.06	44.2588
1378.33	36.1155
1378.6	42.3994
1378.87	45.6033
1379.14	41.5477
1379.41	52.9331
1379.68	48.8421
1379.95	59.1807
1380.22	67.446
1380.49	63.3149
1380.76	71.4889
1381.03	73.5292
1381.3	67.3536
1381.57	77.7105
1381.84	82.8621
1382.11	86.9505
1382.38	79.7295
1382.65	84.8494
1382.92	89.9738
1383.19	92.013
1383.46	101.248
1383.73	102.272
1384	101.265
1384.27	116.667
1384.54	128
1384.81	150.623
1385.08	165.07
1385.34	188.777
1385.61	223.818
1385.88	270.136
1386.15	328.782
1386.42	434.649
1386.69	666.916
1386.96	967.992
1387.23	1611.02
1387.5	2670.96
1387.77	3978.96
1388.04	4654.26
1388.31	3715.4
1388.58	2340.56
1388.85	1271.36
1389.12	726.143
1389.39	443.32
1389.66	302.74
1389.93	212.465
1390.2	173.409
1390.46	133.263
1390.73	121.957
1391	105.593
1391.27	91.2205
1391.54	70.7571
1391.81	66.6931
1392.08	62.6118
1392.35	58.5281
1392.62	45.2347
1392.89	60.6213
1393.16	51.4375
1393.43	47.3765
1393.7	45.3654
1393.97	40.2853
1394.23	45.4404
1394.5	47.5265
1394.77	37.3344
1395.04	42.4933
1395.31	30.2731
1395.58	38.5248
1395.85	23.2306
1396.12	37.6134
1396.39	31.5155
1396.66	33.601
1396.93	27.4955
1397.2	24.4603
1397.46	29.605
1397.73	23.4963
1398	38.8767
1398.27	27.6712
1398.54	27.7245
1398.81	20.6215
1399.08	31.928
1399.35	29.9337
1399.62	19.7638
1399.89	26.9836
1400.16	19.8745
1400.42	24.0141
1400.69	30.215
1400.96	25.1665
1401.23	24.1997
1401.5	22.1941
1401.77	30.4442
1402.04	23.3202
1402.31	16.2257
1402.58	22.4696
1402.84	23.596
1403.11	30.8652
1403.38	30.9424
1403.65	25.8697
1403.92	32.0761
1404.19	22.8631
1404.46	24.9094
1404.73	25.9945
1404.99	21.9276
1405.26	22.9881
1405.53	33.2735
1405.8	39.4526
1406.07	36.4031
1406.34	35.4061
1406.61	45.6904
1406.87	37.5266
1407.14	48.8511
1407.41	61.2049
1407.68	78.6879
1407.95	84.8927
1408.22	112.629
1408.49	129.089
1408.76	154.78
1409.02	185.606
1409.29	206.185
1409.56	240.099
1409.83	210.421
1410.1	168.423
1410.37	125.383
1410.63	91.5437
1410.9	73.0881
1411.17	49.5129
1411.44	42.3559
1411.71	36.2329
1411.98	38.3116
1412.25	24.0088
1412.51	20.9906
1412.78	24.1335
1413.05	24.2327
1413.32	24.3836
1413.59	12.1528
1413.86	16.2418
1414.12	16.1763
1414.39	21.3645
1414.66	17.3606
1414.93	14.3614
1415.2	15.4251
1415.47	12.3901
1415.73	12.4326
1416	18.637
1416.27	8.41802
1416.54	12.574
1416.81	12.6235
1417.07	13.7003
1417.34	12.7241
1417.61	13.8021
1417.88	11.7971
1418.15	7.73237
1418.42	2.63722
1418.68	6.79141
1418.95	11.9743
1419.22	13.0437
1419.49	2.80901
1419.76	2.84224
1420.02	15.1994
1420.29	7.00589
1420.56	4.97892
1420.83	5.00476
1421.1	12.2163
1421.36	11.2156
1421.63	8.16987
1421.9	5.13457
1422.17	6.21948
1422.44	4.22904
1422.7	10.4561
1422.97	17.7318
1423.24	12.6973
1423.51	3.53725
1423.77	8.55228
1424.04	12.5398
1424.31	16.7013
1424.58	12.5643
1424.85	10.5545
1425.11	14.7138
1425.38	13.7817
1425.65	13.8301
1425.92	23.0875
1426.19	8.79324
1426.45	3.69708
1426.72	6.79987
1426.99	11.9464
1427.26	4.78762
1427.52	5.82997
1427.79	6.86366
1428.06	8.92599
1428.33	4.85607
1428.59	3.86491
1428.86	12.094
1429.13	4.96803
1429.4	9.10678
1429.67	6.07967
1429.93	8.17577
1430.2	7.20307
1430.47	9.30829
1430.74	4.23478
1431	11.4695
1431.27	9.48679
1431.54	3.39068
1431.81	2.4119
1432.07	4.50061
1432.34	7.60262
1432.61	8.64737
1432.87	2.51705
1433.14	0.481583
1433.41	6.64371
1433.68	5.62451
1433.95	4.60825
1434.21	1.55432
1434.48	-1.48943
1434.75	2.67177
1435.01	5.79404
1435.28	-0.316799
1435.55	7.91569
1435.82	5.89878
1436.08	1.83117
1436.35	4.93486
1436.62	2.91489
1436.89	1.91827
1437.15	2.9699
1437.42	4.02197
1437.69	-1.06767
1437.95	-0.0171623
1438.22	8.20566
1438.49	8.24247
1438.76	5.21321
1439.02	7.30108
1439.29	6.3117
1439.56	3.27429
1439.82	7.4157
1440.09	3.36435
1440.36	-0.685963
1440.63	2.42984
1440.89	-2.66118
1441.16	5.57515
1441.43	1.50863
1441.69	1.53535
1441.96	-2.54469
1442.23	4.6578
1442.49	0.601048
1442.76	2.68487
1443.03	2.72878
1443.3	-0.325153
1443.56	0.720585
1443.83	4.84314
1444.1	-3.33406
1444.36	3.86977
1444.63	2.87916
1444.9	-1.174
1445.16	3.99936
1445.43	-4.15811
1445.7	5.10077
1445.97	-1.03114
1446.23	2.07062
1446.5	3.12059
1446.77	1.09368
1447.03	2.14354
1447.3	0.1166
1447.57	0.139484
1447.83	3.23632
1448.1	-3.91779
1448.37	-2.86448
1448.63	1.27581
1448.9	0.292591
1449.17	0.324558
1449.43	-4.77653
1449.7	0.374668
1449.97	-4.73277
1450.23	-0.613197
1450.5	-0.595551
1450.77	6.60204
1451.03	-9.7753
1451.3	2.54654
1451.57	0.518543
1451.83	1.56403
1452.1	1.58494
1452.37	0.582306
1452.63	5.72885
1452.9	-0.390945
1453.17	-2.41086
1453.43	-0.328335
1453.7	2.77796
1453.97	-3.3445
1454.23	0.776375
1454.5	-1.25071
1454.77	1.84918
1455.03	-4.27353
1455.3	0.873657
1455.56	-5.253
1455.83	0.921223
1456.1	-0.0677757
1456.36	-0.0371704
1456.63	-3.08738
1456.9	0.00699997
1457.16	1.04592
1457.43	4.1341
1457.7	9.27602
1457.96	-11.1925
1458.23	0.0975304
1458.49	6.26807
1458.76	-5.99945
1459.03	9.39437
1459.29	-0.82386
1459.56	1.25072
1459.82	-0.773849
1460.09	6.41896
1460.36	2.33972
1460.62	3.3826
1460.89	4.42463
1461.16	-0.680908
1461.42	2.40627
1461.69	-4.74732
1461.95	1.41007
1462.22	-2.67279
1462.49	0.409275
1462.75	3.48893
1463.02	4.52022
1463.28	-0.587185
1463.55	0.442791
1463.82	-0.570934
1464.08	-2.59646
1464.35	-1.53471
1464.61	2.60597
1464.88	-0.421375
1465.15	7.8196
1465.41	7.7886
1465.68	4.62249
1465.94	1.52869
1466.21	-3.55943
1466.48	-4.54271
1466.74	-9.6314
1467.01	3.63005
1467.27	5.68172
1467.54	4.68756
1467.8	-3.45834
1468.07	-1.40253
1468.34	1.67449
1468.6	1.69265
1468.87	6.81058
1469.13	-7.45394
1469.4	-3.36071
1469.67	3.78954
1469.93	3.7961
1470.2	-2.31627
1470.46	2.78706
1470.73	-2.29823
1470.99	3.82667
1471.26	-2.27288
1471.53	3.84937
1471.79	0.799458
1472.06	6.91908
1472.32	4.89536
1472.59	0.837364
1472.85	2.88953
1473.12	4.94131
1473.39	-10.3184
1473.65	-3.18263
1473.92	-3.17411
1474.18	0.90678
1474.45	-0.0985336
1474.71	6.02372
1474.98	2.99277
1475.24	0.977573
1475.51	0.994541
1475.78	-3.06247
1476.04	1.01924
1476.31	-2.0257
1476.57	-0.998066
1476.84	-12.1789
1477.1	-1.99852
1477.37	0.0416679
1477.63	4.12
1477.9	3.11595
1478.16	-1.95528
1478.43	-9.06473
1478.69	-1.94323
1478.96	2.12909
1479.22	2.13467
1479.49	-7.00677
1479.76	-8.01818
1480.02	-2.93608
1480.29	-1.91817
1480.55	-3.95493
1480.82	0.102825
1481.08	-2.93912
1481.35	4.17185
1481.61	0.116882
1481.88	-7.98069
1482.14	5.23209
1482.41	5.25699
1482.67	2.23797
1482.94	-0.785282
1483.2	0.242714
1483.47	-6.84505
1483.73	-3.78252
1484	0.292099
1484.26	-4.77472
1484.53	3.33622
1484.79	-1.75833
1485.06	4.27367
1485.32	-1.87129
1485.59	-1.88681
1485.85	-3.94025
1486.12	3.28961
1486.38	-0.734921
1486.65	0.312244
1486.91	0.26152
1487.18	4.35574
1487.44	-2.71728
1487.71	2.34283
1487.97	-2.72461
1488.24	2.34217
1488.5	-1.7072
1488.77	-5.75841
1489.03	1.32421
1489.3	5.37125
1489.56	4.36275
1489.83	2.34416
1490.09	-2.7082
1490.36	1.34809
1490.62	-2.68945
1490.89	5.4058
1491.15	-0.665131
1491.42	-2.6891
1491.68	0.348259
1491.95	1.36607
1492.21	-3.6798
1492.48	0.375999
1492.74	3.41623
1493	-6.6877
1493.27	1.40692
1493.53	3.43751
1493.8	8.49621
1494.06	-0.595108
1494.33	-2.60752
1494.59	6.50277
1494.86	3.48357
1495.12	1.4674
1495.39	-0.555614
1495.65	-5.61699
1495.92	2.4532
1496.18	-2.60569
1496.45	-2.60811
1496.71	4.45869
1496.97	1.43026
1497.24	-0.588989
1497.5	-1.59142
1497.77	5.48024
1498.03	0.437706
1498.3	0.443352
1498.56	0.45084
1498.82	-6.60558
1499.09	-6.59705
1499.35	-1.54158
1499.62	-5.56879
1499.88	-2.52929
1500.15	-1.50856
1500.41	-2.50977
1500.68	4.56312
1500.94	0.528961
1501.2	-0.476379
1501.47	-1.48599
1501.73	0.527405
1502	1.53871
1502.26	3.56091
1502.52	3.56406
1502.79	-1.48129
1503.05	0.529732
1503.32	4.5579
1503.58	-0.486561
1503.85	-2.50838
1504.11	5.56286
1504.37	-5.51844
1504.64	5.58172
1504.9	-3.48909
1505.17	-0.461624
1505.43	2.56199
1505.7	2.55733
1505.96	4.56052
1506.22	-0.494865
1506.49	-2.50943
1506.75	-2.50691
1507.02	2.53697
1507.28	-0.473137
1507.54	-3.48989
1507.81	-5.49898
1508.07	-0.457161
1508.34	-0.45739
1508.6	0.550701
1508.86	-2.4674
1509.13	0.560974
1509.39	0.565254
1509.66	0.567722
1509.92	0.570721
1510.18	-1.43522
1510.45	-4.45192
1510.71	-0.428627
1510.98	9.6375
1511.24	0.559887
1511.5	-3.48135
1511.77	5.55816
1512.03	2.50954
1512.29	4.49155
1512.56	-3.57665
1512.82	-2.59254
1513.08	5.42992
1513.35	-1.61099
1513.61	-2.6236
1513.88	-1.62225
1514.14	3.41319
1514.4	0.425419
1514.67	4.45112
1514.93	2.43692
1515.2	4.43333
1515.46	0.402554
1515.72	-3.62545
1515.99	3.38332
1516.25	2.36335
1516.51	-0.656654
1516.78	2.34735
1517.04	0.338295
1517.3	-0.667088
1517.57	-2.67283
1517.83	2.34229
1518.09	1.34483
1518.36	1.35643
1518.62	1.36036
1518.88	1.36532
1519.15	2.37252
1519.41	0.372025
1519.67	1.38036
1519.94	-4.6361
1520.2	-2.63041
1520.47	4.38722
1520.73	-2.6388
1520.99	0.374111
1521.26	1.38326
1521.52	2.392
