#Acq. time (s)=	30
#Accumulations=	2
#Range (cm-¹)=	1200...2365
#Windows=	3
#Auto scanning=	Off
#Autofocus=	Off
#Macrospot=	Off
#AutoExposure=	Off
#Spike filter=	Multiple accum.
#Delay time (s)=	2
#Binning=	1
#Readout mode=	Signal
#DeNoise=	Off
#ICS correction=	On
#Dark correction=	Off
#Inst. Process=	Off
#Detector Gain=	Best Dynamic
#Detector ADC=	50 kHz HS
#Detector temperature (°C)=	-60.09
#Instrument=	LabRAM HR Evol
#Detector=	SIN-EM FIVIS
#Objective=	x100_VIS_LWD
#Grating=	1800 (450-850nm)
#ND Filter=	100%
#Laser=	532nm_Edge
#Hole=	100.021
#Temperature=	0
#Range=	Visible
#StageXY=	75x50mm Scan+
#StageZ=	Z motor
#X (µm)=	0
#Y (µm)=	0
#Z (µm)=	-16.5
#Full time(mm:ss)=	3:18
#Project=	21_11_26
#Sample=	BU02Aw
#Site=	
#Title=	BU02aW-A-FF1-FI04-S_1800 (450-850nm)_532nm_Edge_100%_x100_VIS_LWD_H100um_30sX2
#Remark=	
#Date=	26.11.2021 11:05
#Acquired=	26.11.2021 11:05:18
#Base:Fit=	16.12.2021 16:15:35
#Base:Fit=	16.12.2021 16:19:21
#Base:Sub=	16.12.2021 16:19:22
1202.72	0.408371
1203	3.81348
1203.28	2.83521
1203.56	-5.74562
1203.84	-1.41541
1204.11	-0.300011
1204.39	1.894
1204.67	3.04085
1204.95	4.19141
1205.23	4.24375
1205.5	-1.09052
1205.78	-1.05392
1206.06	1.12496
1206.34	5.44566
1206.61	4.39922
1206.89	2.28033
1207.17	0.162498
1207.45	0.192726
1207.73	2.37218
1208	5.6209
1208.28	-6.11302
1208.56	0.346954
1208.84	1.44693
1209.11	-2.80097
1209.39	0.438553
1209.67	-2.73054
1209.95	-6.96426
1210.23	5.90308
1210.5	-7.96292
1210.78	4.87579
1211.06	-3.65482
1211.34	2.77093
1211.61	1.71714
1211.89	-2.53249
1212.17	2.81155
1212.45	-1.44288
1212.72	-0.359604
1213	-5.67183
1213.28	-0.331085
1213.56	-2.44198
1213.83	2.90491
1214.11	-4.53139
1214.39	2.95284
1214.67	0.854088
1214.94	-0.182556
1215.22	-4.41547
1215.5	-0.134003
1215.78	-2.24192
1216.05	-0.0944519
1216.33	6.29697
1216.61	-0.0892563
1216.89	-4.34943
1217.16	2.02451
1217.44	-4.35214
1217.72	-3.2884
1218	-3.28824
1218.27	-3.28542
1218.55	5.20933
1218.83	-1.15761
1219.1	-4.33386
1219.38	0.981369
1219.66	2.04941
1219.94	2.05356
1220.21	2.05357
1220.49	6.30504
1220.77	-1.10893
1221.04	6.3213
1221.32	-0.0397644
1221.6	-2.16357
1221.88	-0.0468903
1222.15	-0.0585632
1222.43	-0.0772781
1222.71	2.01685
1222.98	5.16386
1223.26	-0.15403
1223.54	4.05019
1223.81	-0.202778
1224.09	-2.33575
1224.37	-5.52418
1224.65	0.798485
1224.92	6.06554
1225.2	2.88953
1225.48	-3.44615
1225.76	3.95035
1226.03	-6.60198
1226.31	1.85114
1226.59	2.90083
1226.86	2.89298
1227.14	-0.290028
1227.42	6.02762
1227.69	-1.39729
1227.97	2.75296
1228.25	-4.6656
1228.52	-3.65276
1228.8	1.54157
1229.08	-3.76958
1229.35	4.62429
1229.63	-7.85351
1229.91	-3.51953
1230.18	0.63308
1230.46	0.562775
1230.74	-2.62933
1231.01	6.84763
1231.29	-4.78435
1231.57	2.44283
1231.84	-0.708538
1232.12	-4.92445
1232.4	6.62041
1232.67	-2.85615
1232.95	-4.97138
1233.23	3.41702
1233.5	1.2963
1233.78	1.28111
1234.06	3.37185
1234.33	0.212021
1234.61	1.25469
1234.89	-0.852203
1235.16	2.29631
1235.44	2.28634
1235.71	1.22562
1235.99	-7.19304
1236.27	-6.15317
1236.54	1.18917
1236.82	-3.04092
1237.1	-0.96545
1237.37	-2.04756
1237.65	4.21696
1237.93	-2.12644
1238.2	3.08212
1238.48	1.98998
1238.76	-1.19957
1239.03	-0.187035
1239.31	-3.36285
1239.58	-3.39042
1239.86	0.777
1240.14	-7.63271
1240.41	-2.41341
1240.69	-7.67461
1240.97	2.78899
1241.24	-0.37262
1241.52	4.85094
1241.79	2.72754
1242.07	3.74245
1242.35	2.66571
1242.62	6.83748
1242.9	-4.70728
1243.18	-2.62394
1243.45	0.507614
1243.73	5.72631
1244	-8.9706
1244.28	3.59123
1244.56	-0.625008
1244.83	3.54162
1245.11	-1.72823
1245.39	5.57114
1245.66	2.38783
1245.94	5.48386
1246.21	5.43762
1246.49	2.2644
1246.76	-0.904022
1247.04	3.26027
1247.32	8.46941
1247.59	2.16032
1247.87	6.32233
1248.14	10.4773
1248.42	13.5641
1248.7	3.06651
1248.97	6.1773
1249.25	4.06641
1249.52	3.00224
1249.8	2.97411
1250.08	10.2695
1250.35	1.87959
1250.63	-1.29519
1250.9	-2.38071
1251.18	2.80737
1251.45	-0.364685
1251.73	2.73454
1252.01	4.78822
1252.28	3.70724
1252.56	4.71515
1252.83	3.63428
1253.11	3.59591
1253.39	2.51538
1253.66	11.8765
1253.94	3.50531
1254.21	2.44911
1254.49	6.61391
1254.76	1.38557
1255.04	4.50049
1255.31	11.7863
1255.59	2.37051
1255.87	12.7897
1256.14	11.7183
1256.42	4.38877
1256.69	4.37106
1256.97	7.49163
1257.24	6.42748
1257.52	7.44519
1257.79	5.32294
1258.07	12.6034
1258.35	11.5302
1258.62	15.6772
1258.9	25.0411
1259.17	24.9969
1259.45	27.0594
1259.72	14.5219
1260	19.7313
1260.27	15.5668
1260.55	13.4351
1260.82	19.6571
1261.1	16.4735
1261.37	28.9502
1261.65	28.9129
1261.92	32.0343
1262.2	35.2327
1262.48	34.2987
1262.75	42.7102
1263.02	57.1328
1263.3	66.3517
1263.58	82.9535
1263.85	87.2539
1264.13	98.841
1264.4	121.978
1264.68	125.19
1264.95	116.686
1265.23	104.079
1265.5	77.9295
1265.78	67.4464
1266.05	49.6394
1266.33	38.1254
1266.6	27.6639
1266.88	30.7924
1267.15	39.1535
1267.43	21.385
1267.7	20.3439
1267.98	19.3043
1268.25	17.2209
1268.53	15.146
1268.8	27.7248
1269.08	26.6776
1269.35	17.2458
1269.63	15.1428
1269.9	16.1677
1270.18	19.2744
1270.45	8.75862
1270.73	19.1948
1271	20.2036
1271.28	22.2646
1271.55	25.3812
1271.83	21.167
1272.1	20.1108
1272.38	25.348
1272.65	21.1704
1272.93	20.141
1273.2	18.0527
1273.47	14.916
1273.75	25.4044
1274.03	13.8807
1274.3	14.936
1274.57	18.0815
1274.85	18.0709
1275.12	21.1998
1275.4	19.0881
1275.67	18.0346
1275.95	16.9856
1276.22	19.0856
1276.5	22.242
1276.77	21.1952
1277.05	21.1994
1277.32	26.45
1277.6	29.6118
1277.87	24.3696
1278.14	27.5322
1278.42	24.3857
1278.69	29.6479
1278.97	29.6641
1279.24	33.8759
1279.52	42.2974
1279.79	33.8648
1280.07	40.1571
1280.34	53.8064
1280.61	52.7398
1280.89	60.1016
1281.16	66.4153
1281.44	85.3779
1281.71	107.518
1281.99	141.217
1282.26	182.255
1282.53	249.643
1282.81	336.002
1283.08	461.192
1283.36	648.204
1283.63	908.272
1283.91	1226.31
1284.18	1608.77
1284.45	1931.37
1284.73	2047.17
1285	1868.41
1285.28	1361.54
1285.55	927.972
1285.83	585.452
1286.1	371.728
1286.37	254.925
1286.65	159.087
1286.92	117.977
1287.2	106.388
1287.47	76.8937
1287.75	60.0256
1288.02	55.7889
1288.29	49.4575
1288.57	49.4525
1288.84	42.0855
1289.12	29.4605
1289.39	31.5773
1289.66	30.5394
1289.94	26.3429
1290.21	26.3601
1290.49	28.4811
1290.76	28.4788
1291.03	16.8804
1291.31	16.8742
1291.58	28.4572
1291.86	20.0294
1292.13	18.9722
1292.4	18.9725
1292.68	9.49845
1292.95	9.49393
1293.22	13.7006
1293.5	5.27974
1293.77	12.6788
1294.05	13.7669
1294.32	14.8571
1294.59	15.9226
1294.87	18.0336
1295.14	16.9749
1295.42	11.719
1295.69	17.0304
1295.96	9.68951
1296.24	12.917
1296.51	7.66908
1296.79	10.8512
1297.06	-0.770363
1297.33	6.62445
1297.61	6.61555
1297.88	7.66114
1298.15	10.8173
1298.43	11.8573
1298.7	12.9277
1298.97	11.8704
1299.25	1.30388
1299.52	7.63447
1299.79	5.51707
1300.07	9.74458
1300.34	5.54153
1300.62	5.55561
1300.89	7.6762
1301.16	9.79141
1301.44	4.51675
1301.71	9.80714
1301.98	-2.84455
1302.25	8.79176
1302.53	7.75023
1302.8	3.53551
1303.08	5.65587
1303.35	1.43495
1303.62	5.66103
1303.9	2.48936
1304.17	3.55232
1304.44	7.78753
1304.72	9.90963
1304.99	-2.75241
1305.26	4.64086
1305.54	3.58322
1305.81	4.63348
1306.08	5.68365
1306.35	3.56737
1306.63	7.78381
1306.9	-0.647911
1307.18	2.5278
1307.45	3.60097
1307.72	5.72504
1308	4.68208
1308.27	8.91337
1308.54	-1.61705
1308.81	-2.66233
1309.09	5.79302
1309.36	3.70856
1309.63	-1.54282
1309.91	0.591484
1310.18	-0.442917
1310.45	2.73603
1310.73	2.74648
1311	0.651253
1311.27	2.78017
1311.55	1.74424
1311.82	7.04034
1312.09	-0.326164
1312.37	-4.52108
1312.64	1.83967
1312.91	2.91702
1313.18	2.93097
1313.46	-1.28588
1313.73	-1.27087
1314	10.3524
1314.28	2.97582
1314.55	2.99366
1314.82	7.23843
1315.09	1.98572
1315.37	6.23623
1315.64	6.26389
1315.91	-2.15625
1316.18	-4.24106
1316.46	-5.28052
1316.73	-4.20857
1317	-5.24751
1317.28	0.0511017
1317.55	1.12744
1317.82	7.4949
1318.09	-4.09673
1318.37	0.153809
1318.64	0.177551
1318.91	0.20034
1319.18	2.33498
1319.46	4.46767
1319.73	1.31744
1320	3.44974
1320.28	-2.86178
1320.55	-2.83856
1320.82	2.46257
1321.09	-3.86208
1321.37	-2.79691
1321.64	-1.73599
1321.91	8.82088
1322.18	3.55505
1322.46	2.50419
1322.73	0.409286
1323	3.58803
1323.27	-1.67018
1323.55	-0.603851
1323.82	1.53725
1324.09	0.510696
1324.36	0.537079
1324.64	1.61475
1324.91	-2.57652
1325.18	3.77383
1325.45	-6.74063
1325.73	0.649719
1326	-2.51535
1326.27	-0.419159
1326.54	-1.49145
1326.81	1.67271
1327.09	-0.409592
1327.36	-1.41306
1327.63	0.762833
1327.9	-0.239433
1328.18	6.13412
1328.45	8.29821
1328.72	-3.24592
1328.99	1.02212
1329.27	-5.27374
1329.54	1.07691
1329.81	2.16768
1330.08	0.0835266
1330.35	2.21719
1330.63	4.34713
1330.9	-5.12784
1331.17	1.21342
1331.44	8.60148
1331.71	3.33458
1331.99	0.174927
1332.26	-4.0289
1332.53	5.45709
1332.8	3.36167
1333.07	-5.04628
1333.35	4.42661
1333.62	-5.02557
1333.89	-3.96198
1334.16	2.35491
1334.43	6.56854
1334.71	3.43146
1334.98	0.297279
1335.25	4.51339
1335.52	7.6798
1335.79	-0.694603
1336.07	-1.72255
1336.34	0.397011
1336.61	5.6628
1336.88	3.58908
1337.15	2.56568
1337.43	-4.74542
1337.7	6.81233
1337.97	3.69362
1338.24	5.80592
1338.51	2.68058
1338.78	3.75185
1339.06	-3.55623
1339.33	6.94223
1339.6	1.73879
1339.87	-0.31871
1340.14	-0.280785
1340.42	2.89693
1340.69	1.88689
1340.96	5.0657
1341.23	6.14645
1341.5	3.0367
1341.77	6.2085
1342.04	1.00081
1342.32	7.30697
1342.59	0.000869751
1342.86	2.11227
1343.13	1.08466
1343.4	2.15747
1343.67	1.14262
1343.95	8.49748
1344.22	7.48729
1344.49	3.34159
1344.76	6.51569
1345.03	6.54589
1345.3	3.43436
1345.58	7.6378
1345.85	4.51717
1346.12	3.4923
1346.39	2.46231
1346.66	2.46677
1346.93	1.4395
1347.2	4.58733
1347.47	7.7326
1347.75	4.62265
1348.02	2.56309
1348.29	-2.61908
1348.56	1.58265
1348.83	-3.59477
1349.1	4.77024
1349.37	1.67073
1349.65	0.6549
1349.92	9.01319
1350.19	-2.4148
1350.46	4.90065
1350.73	9.09052
1351	2.86817
1351.27	6.01164
1351.54	3.95917
1351.81	2.94133
1352.09	6.09518
1352.36	-2.18521
1352.63	4.10106
1352.9	6.23543
1353.17	8.37712
1353.44	10.5095
1353.71	4.36207
1353.98	2.37926
1354.25	5.48294
1354.53	7.50134
1354.8	8.50889
1355.07	9.5961
1355.34	1.32945
1355.61	6.54145
1355.88	6.56943
1356.15	-2.71701
1356.42	8.7575
1356.69	10.8606
1356.96	1.54606
1357.24	4.69728
1357.51	2.65467
1357.78	14.1094
1358.05	7.90939
1358.32	11.0527
1358.59	9.00506
1358.86	10.0721
1359.13	11.1363
1359.4	10.1265
1359.67	9.12062
1359.94	11.2272
1360.22	8.13986
1360.49	7.12455
1360.76	12.3278
1361.03	15.4636
1361.3	15.4994
1361.57	6.21761
1361.84	13.5077
1362.11	7.33101
1362.38	9.43623
1362.65	15.6837
1362.92	9.50594
1363.19	12.6519
1363.46	10.628
1363.73	10.6828
1364	21.0918
1364.28	17.001
1364.55	20.1503
1364.82	18.1159
1365.09	22.293
1365.36	27.4984
1365.63	21.3099
1365.9	26.5084
1366.17	23.4271
1366.44	19.3129
1366.71	22.4398
1366.98	21.4247
1367.25	17.3047
1367.52	14.2351
1367.79	15.3043
1368.06	20.5252
1368.33	13.339
1368.6	20.6227
1368.87	22.7385
1369.15	36.2266
1369.41	47.6508
1369.68	73.5516
1369.95	105.629
1370.23	99.4513
1370.5	72.6018
1370.77	38.5095
1371.04	30.2743
1371.31	31.3343
1371.58	36.5164
1371.85	33.4305
1372.12	30.3412
1372.39	28.2872
1372.66	31.3941
1372.93	26.2587
1373.2	27.3186
1373.47	27.3508
1373.74	27.3834
1374.01	31.54
1374.28	32.6065
1374.55	35.7347
1374.82	38.863
1375.09	33.7483
1375.36	35.8405
1375.63	30.7375
1375.9	42.1249
1376.17	30.8342
1376.44	49.4277
1376.71	46.354
1376.98	41.2235
1377.25	46.381
1377.52	46.3814
1377.79	45.4094
1378.06	46.5093
1378.33	51.7438
1378.6	54.9331
1378.87	60.1934
1379.14	62.3193
1379.41	66.4828
1379.68	70.6338
1379.95	71.6901
1380.22	75.8289
1380.49	72.7253
1380.76	69.5762
1381.03	77.7915
1381.3	83.9551
1381.57	84.0223
1381.84	92.2558
1382.11	84.0076
1382.38	83.9811
1382.65	96.2883
1382.92	99.3556
1383.19	101.392
1383.46	108.572
1383.73	110.618
1384	126.013
1384.27	120.905
1384.54	132.232
1384.81	143.571
1385.08	165.188
1385.34	185.809
1385.61	206.472
1385.88	273.307
1386.15	343.24
1386.42	455.263
1386.69	632.066
1386.96	956.757
1387.23	1474.47
1387.5	2364.15
1387.77	3553.94
1388.04	4453.93
1388.31	4032.34
1388.58	2829.75
1388.85	1686.47
1389.12	972.439
1389.39	582.98
1389.66	367.45
1389.93	272.041
1390.2	204.221
1390.46	153.799
1390.73	132.233
1391	119.965
1391.27	104.563
1391.54	88.1943
1391.81	69.7785
1392.08	70.8176
1392.35	71.852
1392.62	59.578
1392.89	61.6493
1393.16	49.3913
1393.43	47.3748
1393.7	56.6191
1393.97	50.5112
1394.23	50.5452
1394.5	38.3012
1394.77	37.315
1395.04	39.4002
1395.31	35.3601
1395.58	37.465
1395.85	40.5893
1396.12	30.4002
1396.39	43.7471
1396.66	33.5458
1396.93	26.4138
1397.2	24.3992
1397.46	30.565
1397.73	27.5227
1398	29.6028
1398.27	33.7352
1398.54	28.6691
1398.81	32.8132
1399.08	25.6998
1399.35	29.8387
1399.62	29.8952
1399.89	25.8525
1400.16	31.0199
1400.42	29.014
1400.69	25.9964
1400.96	38.3457
1401.23	28.158
1401.5	24.1003
1401.77	29.2722
1402.04	27.2646
1402.31	27.334
1402.58	22.2966
1402.84	34.6931
1403.11	24.5126
1403.38	26.6321
1403.65	31.8187
1403.92	26.7276
1404.19	25.7254
1404.46	23.6697
1404.73	35.0085
1404.99	29.9117
1405.26	34.0459
1405.53	25.866
1405.8	32.0445
1406.07	35.1459
1406.34	33.1219
1406.61	48.5285
1406.87	49.5856
1407.14	59.8808
1407.41	61.9797
1407.68	63.0549
1407.95	77.4554
1408.22	93.9078
1408.49	135.996
1408.76	149.378
1409.02	168.917
1409.29	205.899
1409.56	236.73
1409.83	214.227
1410.1	192.74
1410.37	138.413
1410.63	108.672
1410.9	73.8053
1411.17	61.5052
1411.44	51.2699
1411.71	43.0943
1411.98	34.9247
1412.25	37.0098
1412.51	29.8891
1412.78	20.7277
1413.05	23.8894
1413.32	26.0739
1413.59	17.9418
1413.86	23.0589
1414.12	22.9975
1414.39	22.0272
1414.66	11.8538
1414.93	28.3491
1415.2	12.9828
1415.47	11.9966
1415.73	15.1151
1416	15.155
1416.27	10.0646
1416.54	16.2694
1416.81	10.1521
1417.07	13.2775
1417.34	6.1324
1417.61	14.3957
1417.88	14.4404
1418.15	11.3989
1418.42	11.4375
1418.68	11.4772
1418.95	10.4898
1419.22	8.47216
1419.49	11.5935
1419.76	10.5958
1420.02	9.59356
1420.29	6.53606
1420.56	8.61592
1420.83	11.7204
1421.1	9.68992
1421.36	13.8205
1421.63	9.74556
1421.9	8.75875
1422.17	9.83754
1422.44	9.89439
1422.7	10.9784
1422.97	10.0201
1423.24	9.07981
1423.51	9.16927
1423.77	10.0883
1424.04	15.1208
1424.31	18.2505
1424.58	8.99809
1424.85	14.1562
1425.11	9.08593
1425.38	7.11195
1425.65	12.2826
1425.92	15.3852
1426.19	16.4687
1426.45	11.3694
1426.72	13.444
1426.99	14.4871
1427.26	8.35272
1427.52	10.4191
1427.79	11.4527
1428.06	6.34563
1428.33	5.34647
1428.59	12.5436
1428.86	11.5543
1429.13	8.51992
1429.4	6.51026
1429.67	9.62298
1429.93	8.64131
1430.2	6.63811
1430.47	13.8606
1430.74	9.80711
1431	7.80792
1431.27	6.84061
1431.54	9.97162
1431.81	2.8303
1432.07	6.96846
1432.34	3.9119
1432.61	3.93129
1432.87	8.05846
1433.14	6.02194
1433.41	0.907104
1433.68	1.94187
1433.95	1.95313
1434.21	8.11639
1434.48	-0.0497169
1434.75	4.10312
1435.01	3.12125
1435.28	1.1055
1435.55	6.26063
1435.82	5.26569
1436.08	2.22025
1436.35	2.24782
1436.62	0.225842
1436.89	8.44773
1437.15	0.277649
1437.42	6.44947
1437.69	7.50271
1437.95	1.38163
1438.22	3.45738
1438.49	7.58701
1438.76	-2.61757
1439.02	5.61207
1439.29	5.64375
1439.56	5.67635
1439.82	-3.50775
1440.09	7.80662
1440.36	0.675526
1440.63	4.81247
1440.89	6.89597
1441.16	6.92589
1441.43	-0.220589
1441.69	-1.22102
1441.96	3.92618
1442.23	2.92491
1442.49	3.98954
1442.76	4.0195
1443.03	4.05846
1443.3	3.05432
1443.56	4.09893
1443.83	-2.03209
1444.1	5.16686
1444.36	6.21768
1444.63	2.14829
1444.9	1.16511
1445.16	3.25624
1445.43	-0.803852
1445.7	3.32334
1445.97	4.37137
1446.23	8.49702
1446.5	4.41638
1446.77	7.51606
1447.03	3.43606
1447.3	5.50951
1447.57	4.50523
1447.83	2.47429
1448.1	3.52052
1448.37	-5.68035
1448.63	-1.54519
1448.9	3.61934
1449.17	3.64838
1449.43	0.596382
1449.7	0.617928
1449.97	2.6879
1450.23	4.75544
1450.5	2.72171
1450.77	1.71741
1451.03	0.713684
1451.3	1.75959
1451.57	-0.269531
1451.83	2.82448
1452.1	4.89348
1452.37	0.815693
1452.63	-4.28459
1452.9	0.862942
1453.17	1.9141
1453.43	3.99352
1453.7	-0.0767708
1453.97	4.04677
1454.23	8.16592
1454.5	2.03822
1454.77	4.11131
1455.03	1.06068
1455.3	-4.04093
1455.56	3.15175
1455.83	2.15127
1456.1	4.23283
1456.36	1.18586
1456.63	2.23349
1456.9	-3.89729
1457.16	-0.80817
1457.43	1.25579
1457.7	2.29902
1457.96	-2.80405
1458.23	4.38679
1458.49	-3.78593
1458.76	-1.71415
1459.03	0.359211
1459.29	0.383339
1459.56	-0.617985
1459.82	-1.62009
1460.09	-7.74786
1460.36	2.51576
1460.62	-3.61327
1460.89	-1.5471
1461.16	0.517315
1461.42	-4.58873
1461.69	-3.54962
1461.95	5.67925
1462.22	2.61978
1462.49	1.60749
1462.75	-3.49866
1463.02	-0.418705
1463.28	-0.409492
1463.55	-1.42344
1463.82	1.65388
1464.08	-5.48475
1464.35	-2.38391
1464.61	-2.34356
1464.88	-2.308
1465.15	5.92477
1465.41	-1.25957
1465.68	3.78274
1465.94	-0.322361
1466.21	-2.34908
1466.48	-4.35803
1466.74	-0.260605
1467.01	3.81837
1467.27	4.85014
1467.54	0.792587
1467.8	8.96922
1468.07	2.8628
1468.34	2.87865
1468.6	-1.18453
1468.87	3.93243
1469.13	-0.132717
1469.4	-3.17943
1469.67	2.95127
1469.93	-2.13876
1470.2	-5.19009
1470.46	0.93404
1470.73	-4.15052
1470.99	-5.15747
1471.26	3.00693
1471.53	-2.07661
1471.79	-1.05017
1472.06	-2.05827
1472.32	-0.00845337
1472.59	4.07914
1472.85	3.07577
1473.12	3.09043
1473.39	-0.969803
1473.65	3.11139
1473.92	6.17331
1474.18	0.0763626
1474.45	-1.94667
1474.71	-2.94893
1474.98	1.14143
1475.24	2.17776
1475.51	2.19364
1475.78	0.171646
1476.04	-3.88844
1476.31	-2.86168
1476.57	2.23627
1476.84	-0.805466
1477.1	-0.798157
1477.37	-0.791157
1477.63	-0.78056
1477.9	-1.78484
1478.16	0.262119
1478.43	-2.77964
1478.69	0.275738
1478.96	2.31579
1479.22	8.42044
1479.49	1.31165
1479.76	-0.715702
1480.02	1.31948
1480.29	0.307281
1480.55	-3.75695
1480.82	-0.711308
1481.08	4.36641
1481.35	0.316288
1481.61	0.321266
1481.88	-1.69071
1482.14	2.38807
1482.41	-4.69471
1482.67	1.41713
1482.94	-4.65456
1483.2	3.47983
1483.47	-2.59418
1483.73	1.48276
1484	4.54139
1484.26	-2.5565
1484.53	1.49788
1484.79	4.52652
1485.06	2.45724
1485.32	4.42725
1485.59	1.37952
1485.85	-1.67819
1486.12	0.462505
1486.38	5.55397
1486.65	-3.53939
1486.91	1.49014
1487.18	2.53866
1487.44	3.57032
1487.71	-4.53841
1487.97	0.526966
1488.24	-4.53264
1488.5	-1.4912
1488.77	-3.51533
1489.03	-2.50323
1489.3	0.534626
1489.56	1.55141
1489.83	3.58083
1490.09	-0.459312
1490.36	-4.49645
1490.62	-1.45236
1490.89	0.574902
1491.15	-1.44747
1491.42	0.575531
1491.68	2.60258
1491.95	-2.44528
1492.21	5.65179
1492.48	-1.41412
1492.74	-4.4396
1493	-0.389046
1493.27	-2.40357
1493.53	-5.42767
1493.8	-1.37838
1494.06	-1.37147
1494.33	1.67015
1494.59	-0.340069
1494.86	-4.37186
1495.12	-2.34337
1495.39	1.70101
1495.65	-3.35736
1495.92	-5.38497
1496.18	0.670444
1496.45	0.669769
1496.71	0.671124
1496.97	-2.35522
1497.24	1.68357
1497.5	1.69066
1497.77	-1.33016
1498.03	-2.33459
1498.3	-3.33759
1498.56	-3.33005
1498.82	-3.32203
1499.09	-0.285797
1499.35	-7.34205
1499.62	5.78917
1499.88	-1.26578
1500.15	-4.28393
1500.41	-3.26624
1500.68	-1.24087
1500.94	5.83092
1501.2	0.788059
1501.47	2.80819
1501.73	-3.25032
1502	-2.23767
1502.26	-0.214649
1502.52	-6.26506
1502.79	5.8451
1503.05	-2.23034
1503.32	-3.24179
1503.58	2.80978
1503.85	5.83153
1504.11	-2.22955
1504.37	1.81362
1504.64	-0.195747
1504.9	-0.19014
1505.17	1.82982
1505.43	0.821735
1505.7	3.84418
1505.96	-3.21988
1506.22	-1.21501
1506.49	-2.22068
1506.75	-0.202396
1507.02	1.81921
1507.28	0.823036
1507.54	1.83706
1507.81	2.85137
1508.07	-1.17542
1508.34	-5.20465
1508.6	-3.18744
1508.86	1.85555
1509.13	-6.19968
1509.39	-1.15679
1509.66	1.86946
1509.92	-1.14972
1510.18	2.88998
1510.45	4.91254
1510.71	-0.131493
1510.98	-3.15896
1511.24	0.863579
1511.5	-3.17357
1511.77	0.838879
1512.03	0.817928
1512.29	2.80799
1512.56	-0.227573
1512.82	7.79315
1513.08	2.76079
1513.35	-0.25951
1513.61	1.74253
1513.88	2.74538
1514.14	1.75545
1514.4	3.78537
1514.67	-2.23435
1514.93	-2.23666
1515.2	-3.24814
1515.46	-2.253
1515.72	-0.254169
1515.99	6.75823
1516.25	7.74806
1516.51	2.72469
1516.78	0.716579
1517.04	-2.29312
1517.3	-4.2992
1517.57	-3.29568
1517.83	-2.29036
1518.09	-2.28534
1518.36	3.74174
1518.62	-4.27744
1518.88	-2.26672
1519.15	-2.26251
1519.41	3.76193
1519.67	-5.26192
1519.94	2.76798
1520.2	1.76503
1520.47	-0.244278
1520.73	2.76322
1520.99	-2.24863
1521.26	1.76999
1521.52	-0.231358
1521.78	3.78498
