#Acq. time (s)=	45
#Accumulations=	2
#Range (cm-¹)=	1200...2399
#Windows=	6
#Auto scanning=	Off
#Autofocus=	Off
#Macrospot=	Off
#AutoExposure=	Off
#Spike filter=	Multiple accum.
#Delay time (s)=	2
#Binning=	1
#Readout mode=	Signal
#DeNoise=	Off
#ICS correction=	On
#Dark correction=	Off
#Inst. Process=	Off
#Detector Gain=	Best Dynamic
#Detector ADC=	50 kHz EM
#Detector EM gain=	100
#Detector temperature (°C)=	-60.09
#Instrument=	LabRAM HR Evol
#Detector=	SIN-EM FIVIS
#Objective=	x100_VIS_LWD
#Grating=	1800 (450-850nm)
#ND Filter=	100%
#Laser=	633nm_Edge
#Hole=	49.98
#Temperature=	0
#Range=	Visible
#StageXY=	75x50mm Scan+
#StageZ=	Z motor
#X (µm)=	0
#Y (µm)=	0
#Z (µm)=	4.4
#Full time(mm:ss)=	9:31
#Project=	21_11_22
#Sample=	BU04w
#Site=	
#Title=	BU04w-A-FF3-FI10-V_1800 (450-850nm)_633nm_Edge_100%_x100_VIS_LWD_H50um_45sX2
#Remark=	
#Date=	22.11.2021 11:53
#Acquired=	22.11.2021 11:53:53
#Base:Fit=	16.12.2021 16:15:35
#Base:Fit=	16.12.2021 16:25:17
#Base:Sub=	16.12.2021 16:25:18
1201.04	0.581055
1201.21	2.24948
1201.39	0.7117
1201.56	3.06912
1201.73	-1.61841
1201.9	8.22458
1202.08	4.34897
1202.25	2.32968
1202.42	2.22354
1202.59	2.82901
1202.76	1.27054
1202.94	2.15677
1203.11	6.96448
1203.28	-2.64127
1203.45	-0.521881
1203.62	0.894257
1203.8	2.58511
1203.97	-1.41684
1204.14	0.839508
1204.31	-2.64182
1204.48	-1.34583
1204.66	1.3562
1204.83	-2.12512
1205	1.01147
1205.17	0.544373
1205.34	3.05444
1205.52	3.07977
1205.69	-1.11404
1205.86	3.67825
1206.03	2.75333
1206.2	-2.15753
1206.38	0.175415
1206.55	1.80072
1206.72	2.1044
1206.89	-0.805115
1207.06	-0.533081
1207.24	0.200531
1207.41	1.61377
1207.58	2.56573
1207.75	-3.75226
1207.92	1.2962
1208.09	2.27927
1208.27	-1.23807
1208.44	0.939941
1208.61	3.01431
1208.78	1.7981
1208.95	2.53812
1209.13	1.69449
1209.3	0.545929
1209.47	1.50739
1209.64	5.06702
1209.81	1.58713
1209.98	-1.16183
1210.16	-0.38559
1210.33	-1.39194
1210.5	2.27026
1210.67	1.70325
1210.84	-4.72177
1211.02	-3.84351
1211.19	0.941254
1211.36	0.862457
1211.53	-2.8653
1211.7	1.82486
1211.87	-1.15363
1212.04	0.509552
1212.22	1.01886
1212.39	1.43182
1212.56	-2.52097
1212.73	1.30579
1212.9	1.53918
1213.08	-0.136749
1213.25	2.57431
1213.42	1.51151
1213.59	3.983
1213.76	-1.46521
1213.93	-0.199097
1214.11	-1.87714
1214.28	0.40686
1214.45	-2.45642
1214.62	3.54825
1214.79	1.12549
1214.96	0.983154
1215.13	0.477509
1215.31	0.267151
1215.48	2.43179
1215.65	1.51709
1215.82	-0.805389
1215.99	-1.48026
1216.16	-1.80667
1216.33	-1.70218
1216.51	-1.98615
1216.68	3.21527
1216.85	0.98999
1217.02	-0.16925
1217.19	0.524109
1217.36	-2.27716
1217.54	-0.8815
1217.71	2.11276
1217.88	-0.527252
1218.05	-1.5878
1218.22	2.45157
1218.39	-4.84357
1218.56	-1.26245
1218.74	1.62341
1218.91	-0.197357
1219.08	0.266724
1219.25	2.63812
1219.42	6.72839
1219.59	-0.543915
1219.76	-1.0513
1219.93	1.25607
1220.11	2.93304
1220.28	1.00433
1220.45	0.217621
1220.62	1.0907
1220.79	2.24045
1220.96	1.54388
1221.13	-2.61246
1221.31	-3.37677
1221.48	-3.31918
1221.65	-3.46133
1221.82	-0.138641
1221.99	-0.676514
1222.16	3.38196
1222.33	1.05505
1222.5	0.258881
1222.68	-2.39374
1222.85	-0.448181
1223.02	0.128845
1223.19	2.91693
1223.36	3.91968
1223.53	1.23901
1223.7	0.256134
1223.87	-2.83853
1224.04	-0.0814514
1224.22	-0.587433
1224.39	-3.0437
1224.56	-1.38925
1224.73	2.87946
1224.9	1.35147
1225.07	-3.20517
1225.24	-0.175232
1225.41	0.0539856
1225.59	-4.07382
1225.76	-0.827759
1225.93	2.94995
1226.1	-1.07321
1226.27	-0.453796
1226.44	2.6467
1226.61	2.29813
1226.78	-1.56366
1226.95	-1.09378
1227.12	3.86688
1227.3	-0.120483
1227.47	-0.684021
1227.64	2.38165
1227.81	0.311523
1227.98	0.505371
1228.15	3.22235
1228.32	1.51245
1228.49	0.94931
1228.66	0.597748
1228.84	-1.53079
1229.01	1.44781
1229.18	-3.1481
1229.35	13.158
1229.52	6.58066
1229.69	-1.29251
1229.86	-0.061615
1230.03	-2.26056
1230.2	2.9772
1230.37	-3.13397
1230.54	1.87207
1230.71	1.23392
1230.89	2.31583
1231.06	-3.14844
1231.23	3.88095
1231.4	1.97562
1231.57	4.12259
1231.74	2.56665
1231.91	2.28253
1232.08	-0.00375366
1232.25	2.20212
1232.42	2.74982
1232.59	1.7919
1232.77	4.24875
1232.94	3.98022
1233.11	2.54471
1233.28	0.657806
1233.45	-1.49112
1233.62	0.838867
1233.79	-0.0597534
1233.96	2.4935
1234.13	3.20981
1234.3	3.88889
1234.47	1.52527
1234.64	7.34775
1234.81	1.52255
1234.99	5.92456
1235.16	1.12939
1235.33	0.876221
1235.5	5.09366
1235.67	8.17929
1235.84	5.93176
1236.01	0.756317
1236.18	5.16559
1236.35	4.23892
1236.52	6.1329
1236.69	2.9039
1236.86	0.756866
1237.03	3.15442
1237.2	4.59204
1237.37	1.98914
1237.54	4.76251
1237.72	0.833282
1237.89	4.41388
1238.06	2.63724
1238.23	-2.51489
1238.4	1.63977
1238.57	5.70572
1238.74	2.4411
1238.91	4.29337
1239.08	3.06027
1239.25	-0.673157
1239.42	2.76071
1239.59	0.370911
1239.76	-0.512878
1239.93	1.07718
1240.1	3.7471
1240.27	4.88986
1240.44	4.58475
1240.61	4.62662
1240.79	3.43787
1240.96	3.31818
1241.13	3.42038
1241.3	6.63516
1241.47	3.6196
1241.64	0.792328
1241.81	6.14285
1241.98	1.68161
1242.15	2.21249
1242.32	0.713776
1242.49	3.34744
1242.66	1.18668
1242.83	5.2966
1243	-1.46075
1243.17	0.502594
1243.34	6.51434
1243.51	8.26358
1243.68	4.95877
1243.85	7.11426
1244.02	2.27512
1244.19	1.88324
1244.36	7.32477
1244.53	7.14688
1244.7	8.55609
1244.87	0.987701
1245.05	2.16205
1245.21	3.80548
1245.39	8.90518
1245.55	5.42075
1245.73	6.34232
1245.9	3.20151
1246.07	5.31073
1246.24	3.7059
1246.41	2.47772
1246.58	5.95694
1246.75	9.61749
1246.92	9.75516
1247.09	6.59186
1247.26	4.60065
1247.43	1.93076
1247.6	6.28192
1247.77	6.11008
1247.94	7.83896
1248.11	5.85522
1248.28	6.01547
1248.45	4.99274
1248.62	6.1369
1248.79	4.35861
1248.96	5.68344
1249.13	5.30402
1249.3	5.0058
1249.47	4.13849
1249.64	3.9306
1249.81	7.05173
1249.98	8.2767
1250.15	6.2352
1250.32	3.37094
1250.49	4.7005
1250.66	3.90991
1250.83	5.41992
1251	4.07779
1251.17	6.71564
1251.34	3.58817
1251.51	4.63388
1251.68	7.22751
1251.85	5.26154
1252.02	6.25415
1252.19	4.12292
1252.36	3.11484
1252.53	8.7258
1252.7	6.27472
1252.87	2.1431
1253.04	5.0686
1253.21	4.47141
1253.38	5.61725
1253.55	1.24753
1253.72	6.86386
1253.89	5.45044
1254.06	6.96243
1254.23	4.92786
1254.4	7.11731
1254.57	6.87549
1254.74	8.04001
1254.91	6.44641
1255.08	2.82483
1255.25	6.75516
1255.42	4.63019
1255.59	4.79306
1255.76	1.67563
1255.93	5.0968
1256.1	2.45889
1256.27	7.16348
1256.44	4.6434
1256.61	3.26617
1256.78	5.75061
1256.95	6.76996
1257.12	2.10876
1257.29	8.50513
1257.46	3.34503
1257.63	8.2597
1257.8	6.50372
1257.97	6.31784
1258.13	5.23273
1258.31	17.2471
1258.47	9.87137
1258.64	4.94196
1258.81	11.6839
1258.98	4.56171
1259.15	5.82639
1259.32	10.1205
1259.49	2.51965
1259.66	3.08597
1259.83	7.05594
1260	3.94318
1260.17	8.35321
1260.34	2.57932
1260.51	6.66846
1260.68	6.73111
1260.85	4.50864
1261.02	9.4614
1261.19	7.61514
1261.36	9.43033
1261.53	7.1239
1261.7	9.63153
1261.87	5.27924
1262.04	7.01254
1262.21	9.15237
1262.38	5.61392
1262.55	4.30576
1262.72	7.64542
1262.89	4.39655
1263.05	5.47464
1263.22	5.53384
1263.39	11.1051
1263.56	13.0732
1263.73	18.41
1263.9	11.1104
1264.07	9.73016
1264.24	6.92374
1264.41	14.0451
1264.58	4.50378
1264.75	5.6662
1264.92	9.99545
1265.09	11.1702
1265.26	7.77536
1265.43	7.83411
1265.6	6.84155
1265.77	5.76132
1265.94	10.9644
1266.11	7.03354
1266.27	7.20337
1266.44	3.79077
1266.61	11.41
1266.78	8.41794
1266.95	5.36618
1267.12	4.82309
1267.29	5.71078
1267.46	4.06107
1267.63	6.36667
1267.8	3.53253
1267.97	6.36243
1268.14	1.25278
1268.31	7.33023
1268.48	7.30591
1268.65	10.2952
1268.81	8.09564
1268.98	2.16446
1269.15	3.90112
1269.32	6.82141
1269.49	6.78665
1269.66	3.64026
1269.83	8.0163
1270	2.82193
1270.17	5.59192
1270.34	3.57413
1270.51	6.6351
1270.68	1.90735
1270.85	6.07242
1271.01	-0.300079
1271.18	5.03333
1271.35	6.78522
1271.52	4.53296
1271.69	4.71967
1271.86	6.38452
1272.03	3.50879
1272.2	6.71545
1272.37	4.25677
1272.54	7.56253
1272.71	4.8511
1272.88	2.01529
1273.04	9.72385
1273.21	5.19287
1273.38	3.88437
1273.55	4.28799
1273.72	8.48779
1273.89	7.87775
1274.06	10.415
1274.23	4.58417
1274.4	3.7359
1274.57	4.27048
1274.74	4.86334
1274.9	4.00174
1275.07	5.25446
1275.24	6.83548
1275.41	5.79523
1275.58	8.44269
1275.75	6.28561
1275.92	3.01559
1276.09	8.38779
1276.26	4.05545
1276.42	1.21573
1276.59	11.1356
1276.76	6.69049
1276.93	3.88773
1277.1	2.99622
1277.27	5.02408
1277.44	2.91122
1277.61	5.28271
1277.78	3.54257
1277.95	10.4525
1278.11	1.9949
1278.28	2.89505
1278.45	4.15433
1278.62	3.17899
1278.79	4.03186
1278.96	5.15137
1279.13	3.70511
1279.3	5.54309
1279.46	7.3656
1279.63	8.36807
1279.8	5.27121
1279.97	7.27255
1280.14	5.48572
1280.31	2.89816
1280.48	5.68167
1280.65	8.60181
1280.82	6.2774
1280.98	6.87149
1281.15	9.3298
1281.32	6.65274
1281.49	9.69846
1281.66	8.17966
1281.83	17.8466
1282	18.0483
1282.17	12.4568
1282.33	14.8543
1282.5	24.2552
1282.67	28.8161
1282.84	40.2372
1283.01	36.8127
1283.18	51.1147
1283.35	50.4977
1283.52	73.0695
1283.68	95.1833
1283.85	119.164
1284.02	158.166
1284.19	164.269
1284.36	150.18
1284.53	149.403
1284.7	97.3749
1284.86	85.4968
1285.03	48.9339
1285.2	38.3824
1285.37	30.8575
1285.54	16.6537
1285.71	19.7421
1285.88	11.6788
1286.04	5.85986
1286.21	10.7569
1286.38	9.39893
1286.55	13.5944
1286.72	8.90598
1286.89	10.1654
1287.06	15.1321
1287.22	4.76678
1287.39	4.29987
1287.56	11.5413
1287.73	7.85522
1287.9	1.13702
1288.07	5.16824
1288.24	4.9696
1288.4	6.44669
1288.57	1.28589
1288.74	1.33453
1288.91	0.900635
1289.08	-0.588867
1289.25	2.78592
1289.41	5.07761
1289.58	5.77847
1289.75	4.58112
1289.92	2.52924
1290.09	4.70837
1290.26	5.89832
1290.42	2.6969
1290.59	5.82092
1290.76	4.13174
1290.93	0.380829
1291.1	-1.9469
1291.27	0.868347
1291.44	1.81708
1291.6	4.03464
1291.77	0.654053
1291.94	-2.07175
1292.11	6.41705
1292.28	1.25378
1292.44	-0.456482
1292.61	1.84866
1292.78	1.39285
1292.95	2.60941
1293.12	1.98972
1293.29	2.87177
1293.45	-3.07761
1293.62	-1.77908
1293.79	3.18301
1293.96	1.74316
1294.13	5.18924
1294.29	-3.62897
1294.46	-1.97824
1294.63	3.95837
1294.8	1.88812
1294.97	5.35373
1295.14	-0.822418
1295.3	0.535706
1295.47	1.17694
1295.64	-0.840515
1295.81	0.846985
1295.98	1.39905
1296.14	-1.68207
1296.31	-1.97153
1296.48	-2.69379
1296.65	2.93155
1296.82	1.38919
1296.99	1.76532
1297.15	-2.41397
1297.32	3.24536
1297.49	-0.199646
1297.66	-1.41815
1297.83	-3.31277
1297.99	-0.119293
1298.16	4.44601
1298.33	1.55594
1298.5	1.76953
1298.67	2.19708
1298.83	3.09995
1299	-2.11893
1299.17	0.285858
1299.34	-4.60864
1299.51	0.573944
1299.67	-4.76486
1299.84	-2.3139
1300.01	4.15079
1300.18	7.99496
1300.35	-1.40698
1300.51	6.25845
1300.68	-4.00925
1300.85	1.5097
1301.02	-1.16428
1301.19	6.97464
1301.35	7.53842
1301.52	2.78613
1301.69	-2.25842
1301.86	2.57925
1302.03	-1.18069
1302.19	5.57498
1302.36	4.58539
1302.53	-4.16125
1302.7	0.323334
1302.86	-1.22751
1303.03	0.58316
1303.2	2.57605
1303.37	4.72217
1303.54	-0.00582886
1303.7	0.443481
1303.87	-5.46085
1304.04	1.13739
1304.21	5.31427
1304.37	1.03061
1304.54	2.83035
1304.71	1.61044
1304.88	-2.84021
1305.05	1.22452
1305.21	-2.21152
1305.38	0.943542
1305.55	-1.29623
1305.72	-2.6459
1305.88	-2.74835
1306.05	3.56708
1306.22	-0.374451
1306.39	-1.65741
1306.55	-0.729034
1306.72	-1.44785
1306.89	0.47345
1307.06	-3.72656
1307.23	0.493225
1307.39	2.48096
1307.56	1.28659
1307.73	0.30658
1307.9	-0.100983
1308.06	0.568909
1308.23	2.31201
1308.4	-1.04544
1308.57	-1.20377
1308.73	-1.87479
1308.9	0.967621
1309.07	0.31131
1309.24	-2.56671
1309.41	3.5513
1309.57	3.76251
1309.74	-1.82245
1309.91	2.66037
1310.07	-3.61282
1310.24	1.43597
1310.41	-3.7002
1310.58	9.71237
1310.75	-3.07056
1310.91	2.97531
1311.08	10.3875
1311.25	-2.37985
1311.42	1.81604
1311.58	0.068573
1311.75	-0.93454
1311.92	0.18222
1312.08	0.838989
1312.25	0.787659
1312.42	-1.13361
1312.59	-1.62567
1312.75	-1.37167
1312.92	-0.140106
1313.09	1.742
1313.26	-0.55423
1313.42	0.762604
1313.59	-0.546265
1313.76	-1.57733
1313.93	-2.20285
1314.09	4.28696
1314.26	-1.86993
1314.43	-1.16779
1314.6	4.03278
1314.76	-2.15738
1314.93	-1.04172
1315.1	-1.59674
1315.27	-2.31064
1315.43	3.5683
1315.6	-0.600067
1315.77	-1.18668
1315.93	0.408722
1316.1	-0.0368958
1316.27	-0.421265
1316.44	-1.2941
1316.6	-0.893707
1316.77	-0.845032
1316.94	0.594147
1317.1	2.27072
1317.27	-0.95459
1317.44	1.85806
1317.61	0.673981
1317.77	-1.18991
1317.94	3.79828
1318.11	3.62042
1318.28	2.62997
1318.44	0.795868
1318.61	-0.735138
1318.78	-4.6853
1318.94	-0.501007
1319.11	-0.451965
1319.28	0.735291
1319.45	2.39865
1319.61	-0.149078
1319.78	-2.88657
1319.95	2.03986
1320.11	-1.03244
1320.28	-2.71896
1320.45	0.737854
1320.62	1.07074
1320.78	1.16858
1320.95	3.99451
1321.12	-2.36404
1321.28	8.65067
1321.45	0.387543
1321.62	1.55264
1321.78	0.0834656
1321.95	-2.1687
1322.12	2.26492
1322.29	3.4162
1322.45	3.49362
1322.62	-1.49771
1322.79	-0.363068
1322.95	-0.260498
1323.12	1.70392
1323.29	2.52512
1323.45	2.43338
1323.62	1.3902
1323.79	1.8653
1323.96	6.35455
1324.12	1.94479
1324.29	0.989319
1324.46	0.160645
1324.62	-1.0386
1324.79	4.35089
1324.96	-0.148407
1325.12	-0.359222
1325.29	-1.59409
1325.46	3.3685
1325.62	1.34766
1325.79	-0.346924
1325.96	0.0645752
1326.13	2.48004
1326.29	-1.32684
1326.46	3.73148
1326.63	2.70349
1326.79	3.92786
1326.96	0.66687
1327.13	2.86169
1327.29	6.32471
1327.46	5.6492
1327.63	2.78729
1327.79	0.18512
1327.96	-0.542969
1328.13	3.92691
1328.29	7.95938
1328.46	2.73132
1328.63	-1.78137
1328.79	2.14182
1328.96	4.15411
1329.13	2.39832
1329.29	1.87833
1329.46	4.41205
1329.63	-1.13696
1329.79	3.55383
1329.96	5.09784
1330.13	4.49911
1330.3	4.0257
1330.46	2.2171
1330.63	5.49863
1330.8	3.00385
1330.96	0.507416
1331.13	3.67361
1331.29	0.0809021
1331.46	-1.65097
1331.63	-1.65292
1331.79	2.07529
1331.96	4.18121
1332.13	3.69632
1332.29	3.68524
1332.46	-1.02173
1332.63	1.34363
1332.79	-0.260437
1332.96	1.27136
1333.13	4.0267
1333.29	3.80032
1333.46	4.90567
1333.63	5.15472
1333.79	3.55554
1333.96	1.65213
1334.13	5.42648
1334.29	3.54614
1334.46	0.883728
1334.63	4.19052
1334.79	13.6243
1334.96	2.31494
1335.13	2.54074
1335.29	6.57098
1335.46	5.85553
1335.62	2.36053
1335.79	6.85208
1335.96	6.91907
1336.12	7.78546
1336.29	0.580261
1336.46	-0.668854
1336.62	5.54175
1336.79	5.00336
1336.96	5.79507
1337.12	3.93393
1337.29	2.01495
1337.46	3.9097
1337.62	2.6196
1337.79	0.76886
1337.95	2.3768
1338.12	5.18753
1338.29	7.70428
1338.45	4.02484
1338.62	2.20505
1338.79	6.31931
1338.95	2.26923
1339.12	2.24173
1339.29	2.70035
1339.45	3.79877
1339.62	5.43298
1339.78	4.44119
1339.95	0.578766
1340.12	1.75397
1340.28	2.43008
1340.45	5.33435
1340.62	7.02301
1340.78	7.85126
1340.95	2.69641
1341.11	2.1727
1341.28	3.52188
1341.45	8.3439
1341.61	11.0884
1341.78	5.12106
1341.94	9.49081
1342.11	4.69342
1342.28	5.90036
1342.44	8.93668
1342.61	5.53281
1342.78	7.62796
1342.94	6.74826
1343.11	6.75211
1343.27	4.84277
1343.44	4.92999
1343.61	8.93356
1343.77	9.86264
1343.94	10.9536
1344.1	1.88205
1344.27	9.24377
1344.44	6.08002
1344.6	8.17902
1344.77	10.4792
1344.93	4.15961
1345.1	4.1582
1345.27	8.66998
1345.43	2.47641
1345.6	9.82147
1345.77	2.8407
1345.93	6.52939
1346.1	2.2128
1346.26	2.57907
1346.43	5.31464
1346.6	3.70908
1346.76	6.03793
1346.93	6.03528
1347.09	3.8862
1347.26	2.8147
1347.42	4.32483
1347.59	6.11322
1347.76	21.5751
1347.92	6.36844
1348.09	7.90924
1348.25	2.58972
1348.42	3.60214
1348.59	4.70804
1348.75	7.31955
1348.92	3.09515
1349.08	4.69781
1349.25	6.98581
1349.42	4.32919
1349.58	6.52444
1349.75	2.79834
1349.91	5.64355
1350.08	7.37704
1350.25	9.82272
1350.41	5.18405
1350.58	8.68073
1350.74	2.98123
1350.91	7.07571
1351.07	5.40643
1351.24	3.75769
1351.41	3.60748
1351.57	5.5134
1351.74	15.6537
1351.9	6.26102
1352.07	8.80234
1352.23	12.3974
1352.4	6.37042
1352.57	5.4563
1352.73	5.6106
1352.9	6.39075
1353.06	3.73633
1353.23	7.70105
1353.39	8.27402
1353.56	6.89978
1353.73	8.41479
1353.89	5.84378
1354.06	2.59991
1354.22	9.0473
1354.39	3.31317
1354.55	6.35971
1354.72	8.49783
1354.88	5.86304
1355.05	9.19928
1355.22	7.99557
1355.38	2.34995
1355.55	7.60245
1355.71	5.97037
1355.88	10.2094
1356.04	5.01697
1356.21	5.67886
1356.38	9.95886
1356.54	7.42651
1356.71	2.93271
1356.87	7.23245
1357.04	7.83383
1357.2	8.46945
1357.37	11.2335
1357.53	6.1665
1357.7	7.32477
1357.87	7.75253
1358.03	7.45349
1358.2	5.4812
1358.36	3.74509
1358.53	2.23566
1358.69	2.1217
1358.86	5.70306
1359.02	6.65613
1359.19	6.38593
1359.35	5.70584
1359.52	4.74631
1359.69	3.7796
1359.85	17.3336
1360.02	7.14319
1360.18	3.77563
1360.35	6.79376
1360.51	6.02344
1360.68	6.55051
1360.84	6.14713
1361.01	7.53854
1361.17	7.85742
1361.34	6.01337
1361.5	6.5802
1361.67	5.46371
1361.84	8.08047
1362	6.54584
1362.17	5.8364
1362.33	7.93658
1362.5	8.30811
1362.66	11.2991
1362.83	8.51114
1362.99	8.69174
1363.16	4.66101
1363.32	10.306
1363.49	5.61292
1363.65	5.16711
1363.82	7.90033
1363.98	8.70502
1364.15	6.53235
1364.31	12.2425
1364.48	7.13922
1364.64	9.6756
1364.81	5.68738
1364.98	10.9221
1365.14	8.19385
1365.31	9.23636
1365.47	10.944
1365.64	4.24734
1365.8	5.18411
1365.97	10.2842
1366.13	9.31995
1366.3	8.9559
1366.46	7.17166
1366.63	3.6456
1366.79	3.50394
1366.96	5.60901
1367.12	8.18399
1367.29	5.4039
1367.45	7.88834
1367.62	7.02319
1367.78	9.42981
1367.95	9.45297
1368.11	5.71478
1368.28	5.28583
1368.44	7.73828
1368.61	5.79465
1368.77	7.93115
1368.94	5.12924
1369.1	8.56555
1369.27	13.6033
1369.43	17.0584
1369.6	12.4756
1369.76	12.2034
1369.93	11.0262
1370.09	10.7286
1370.26	3.62772
1370.42	8.43414
1370.59	10.8137
1370.75	6.46185
1370.92	6.98279
1371.08	7.88406
1371.25	7.63708
1371.41	11.3569
1371.58	10.6187
1371.74	5.19278
1371.91	10.3697
1372.07	5.41235
1372.24	19.5721
1372.4	14.469
1372.57	6.24704
1372.73	8.30826
1372.9	3.20374
1373.06	8.89063
1373.23	6.94019
1373.39	7.31625
1373.56	8.34967
1373.72	6.33609
1373.89	11.5176
1374.05	1.68082
1374.22	6.90903
1374.38	7.43478
1374.54	6.41229
1374.71	7.34506
1374.87	1.77771
1375.04	5.49045
1375.2	5.55411
1375.37	6.75601
1375.53	8.22968
1375.7	8.94092
1375.86	6.00589
1376.03	9.63666
1376.19	4.80185
1376.36	4.79987
1376.52	6.35529
1376.69	7.6496
1376.85	9.49832
1377.02	10.7491
1377.18	5.29907
1377.34	9.24188
1377.51	20.2926
1377.67	10.0561
1377.84	6.64133
1378	9.24542
1378.17	4.0553
1378.33	7.96432
1378.5	7.53253
1378.66	4.15094
1378.83	9.4624
1378.99	9.80484
1379.16	13.0697
1379.32	6.17325
1379.48	5.14746
1379.65	7.88309
1379.81	20.0286
1379.98	8.0033
1380.14	10.2468
1380.31	8.98047
1380.47	8.49564
1380.64	9.73059
1380.8	12.2969
1380.97	9.69403
1381.13	8.65143
1381.3	7.93854
1381.46	9.8114
1381.62	8.43457
1381.79	5.94827
1381.95	8.20102
1382.12	10.5414
1382.28	11.8
1382.45	5.38388
1382.61	10.9311
1382.78	12.1199
1382.94	4.55518
1383.1	7.10001
1383.27	9.24466
1383.43	9.75027
1383.6	10.7056
1383.76	13.5813
1383.93	7.55582
1384.09	5.20523
1384.26	17.7834
1384.42	15.3173
1384.58	8.02148
1384.75	13.576
1384.91	12.8844
1385.08	13.6484
1385.24	17.3665
1385.4	14.351
1385.57	16.2176
1385.73	21.893
1385.9	25.5823
1386.06	31.9249
1386.23	36.2624
1386.39	33.5762
1386.56	51.442
1386.72	77.2166
1386.88	110.15
1387.05	150.543
1387.21	223.257
1387.38	311.895
1387.54	343.911
1387.7	316.462
1387.87	234.554
1388.03	143.35
1388.2	84.1962
1388.36	53.4276
1388.53	32.1527
1388.69	39.5927
1388.85	22.8726
1389.02	19.4696
1389.18	23.6599
1389.35	13.5908
1389.51	14.7212
1389.68	11.809
1389.84	16.2043
1390	18.6253
1390.17	15.2377
1390.33	7.60254
1390.5	0.489685
1390.66	8.901
1390.82	5.71213
1390.99	4.94843
1391.15	6.30313
1391.32	9.54898
1391.48	8.86755
1391.64	3.47214
1391.81	10.6334
1391.97	7.63199
1392.14	4.6799
1392.3	4.61642
1392.46	7.41141
1392.63	8.38391
1392.79	5.53879
1392.96	4.49509
1393.12	11.3445
1393.28	8.0499
1393.45	9.43286
1393.61	3.48367
1393.78	9.04507
1393.94	3.79575
1394.1	8.01837
1394.27	5.23877
1394.43	9.96289
1394.6	9.95364
1394.76	5.3631
1394.92	5.57944
1395.09	6.82587
1395.25	7.32788
1395.42	4.09109
1395.58	7.12234
1395.74	-0.0644836
1395.91	-1.07068
1396.07	2.35458
1396.24	1.66931
1396.4	2.27509
1396.56	6.79309
1396.73	10.0586
1396.89	7.06827
1397.05	2.04681
1397.22	8.67053
1397.38	5.58896
1397.55	1.37943
1397.71	2.01715
1397.87	9.00705
1398.04	3.633
1398.2	2.01392
1398.36	-2.32654
1398.53	1.82892
1398.69	6.16232
1398.86	6.00778
1399.02	1.73602
1399.18	5.96295
1399.35	5.81192
1399.51	3.07483
1399.67	3.39651
