#Acq. time (s)=	30
#Accumulations=	2
#Range (cm-¹)=	1200...2365
#Windows=	3
#Auto scanning=	Off
#Autofocus=	Off
#Macrospot=	Off
#AutoExposure=	Off
#Spike filter=	Multiple accum.
#Delay time (s)=	2
#Binning=	1
#Readout mode=	Signal
#DeNoise=	Off
#ICS correction=	On
#Dark correction=	Off
#Inst. Process=	Off
#Detector Gain=	Best Dynamic
#Detector ADC=	50 kHz HS
#Detector temperature (°C)=	-60.09
#Instrument=	LabRAM HR Evol
#Detector=	SIN-EM FIVIS
#Objective=	x100_VIS_LWD
#Grating=	1800 (450-850nm)
#ND Filter=	100%
#Laser=	532nm_Edge
#Hole=	100.021
#Temperature=	0
#Range=	Visible
#StageXY=	75x50mm Scan+
#StageZ=	Z motor
#X (µm)=	0
#Y (µm)=	0
#Z (µm)=	-14.5
#Full time(mm:ss)=	3:20
#Project=	21_11_26
#Sample=	BU19(2)w
#Site=	
#Title=	BU19(2)w-A-FF1-FI04-V_1800 (450-850nm)_532nm_Edge_100%_x100_VIS_LWD_H100um_30sX2
#Remark=	
#Date=	26.11.2021 13:26
#Acquired=	26.11.2021 13:26:35
#Base:Fit=	16.12.2021 16:00:56
#Base:Fit=	16.12.2021 16:06:18
#Base:Sub=	16.12.2021 16:06:18
1202.72	12.3732
1203	7.70782
1203.28	17.6642
1203.56	-6.1463
1203.84	-11.7014
1204.11	-4.23895
1204.39	0.0258179
1204.67	19.5107
1204.95	2.47223
1205.23	12.182
1205.5	9.98907
1205.78	7.78333
1206.06	25.9532
1206.34	-19.2111
1206.61	8.60272
1206.89	11.731
1207.17	-14.0769
1207.45	-1.2724
1207.73	8.36197
1208	15.8543
1208.28	-15.1605
1208.56	7.32806
1208.84	-1.2608
1209.11	-10.9055
1209.39	13.677
1209.67	-4.46271
1209.95	-9.73956
1210.23	-3.27759
1210.5	-13.964
1210.78	8.39334
1211.06	10.4467
1211.34	1.85226
1211.61	-2.49078
1211.89	10.2689
1212.17	-14.3495
1212.45	-0.565704
1212.72	0.462555
1213	-5.97672
1213.28	-22.0034
1213.56	-1.77905
1213.83	-4.95932
1214.11	7.79553
1214.39	3.61691
1214.67	-17.6019
1214.94	-16.474
1215.22	5.93753
1215.5	12.3652
1215.78	0.688904
1216.05	-2.48367
1216.33	7.04581
1216.61	-15.3861
1216.89	5.76758
1217.16	8.84595
1217.44	6.64438
1217.72	2.32617
1218	-6.23935
1218.27	-5.22412
1218.55	11.7158
1218.83	8.48798
1219.1	-8.49823
1219.38	-11.6698
1219.66	0.00268555
1219.94	7.41586
1220.21	-0.0444031
1220.49	-10.6294
1220.77	3.19327
1221.04	9.56671
1221.32	-2.10831
1221.6	12.6958
1221.88	0.990845
1222.15	-11.813
1222.43	14.5501
1222.71	12.2721
1222.98	-0.605896
1223.26	-4.99957
1223.54	3.30637
1223.81	15.8472
1224.09	-7.51938
1224.37	-2.35403
1224.65	0.736908
1224.92	1.7352
1225.2	-3.57895
1225.48	13.3148
1225.76	-16.18
1226.03	6.04581
1226.31	5.05457
1226.59	-17.1293
1226.86	-10.8101
1227.14	-9.81589
1227.42	-1.42822
1227.69	5.76373
1227.97	-12.5256
1228.25	5.15775
1228.52	-0.325195
1228.8	-1.74252
1229.08	-5.18756
1229.35	8.44516
1229.63	-3.20352
1229.91	-3.4317
1230.18	-6.95929
1230.46	9.53583
1230.74	0.967773
1231.01	5.22342
1231.29	4.98874
1231.57	-3.14612
1231.84	-6.23065
1232.12	3.21576
1232.4	-7.30997
1232.67	11.5511
1232.95	1.02936
1233.23	-1.10046
1233.5	8.30887
1233.78	-2.21356
1234.06	5.15292
1234.33	3.07864
1234.61	5.20996
1234.89	-5.25082
1235.16	8.4657
1235.44	-19.8938
1235.71	8.51123
1235.99	10.6503
1236.27	-12.4613
1236.54	6.44382
1236.82	-6.23547
1237.1	-1.0556
1237.37	7.25058
1237.65	12.3527
1237.93	-27.7145
1238.2	-0.567169
1238.48	2.42206
1238.76	9.60526
1239.03	-1.01184
1239.31	24.0663
1239.58	-3.26904
1239.86	5.05658
1240.14	5.00967
1240.41	8.11987
1240.69	-21.2531
1240.97	2.84393
1241.24	25.9038
1241.52	1.785
1241.79	6.96689
1242.07	15.2546
1242.35	-9.96616
1242.62	-0.552917
1242.9	3.63776
1243.18	8.90848
1243.45	0.549377
1243.73	4.71033
1244	7.83157
1244.28	4.68555
1244.56	9.89447
1244.83	1.45392
1245.11	8.72366
1245.39	13.8476
1245.66	11.6207
1245.94	-3.21112
1246.21	0.8172
1246.49	15.3863
1246.76	14.2764
1247.04	11.1071
1247.32	6.88065
1247.59	7.86166
1247.87	22.4739
1248.14	11.9317
1248.42	13.841
1248.7	13.729
1248.97	5.3089
1249.25	2.16168
1249.52	13.663
1249.8	-9.40881
1250.08	-17.8232
1250.35	6.20169
1250.63	2.94583
1250.9	9.0806
1251.18	4.77451
1251.45	4.66016
1251.73	19.1812
1252.01	-1.81866
1252.28	2.25082
1252.56	17.8046
1252.83	7.25046
1253.11	19.6538
1253.39	11.1885
1253.66	-7.67215
1253.94	7.94403
1254.21	16.3192
1254.49	-17.0459
1254.76	3.87872
1255.04	4.91797
1255.31	5.923
1255.59	8.00345
1255.87	2.74225
1256.14	6.86005
1256.42	18.3254
1256.69	11.0074
1256.97	7.89267
1257.24	14.139
1257.52	9.8992
1257.79	-3.77567
1258.07	31.6532
1258.35	28.4471
1258.62	33.5909
1258.9	15.754
1259.17	31.2718
1259.45	18.6952
1259.72	26.008
1260	9.32422
1260.27	14.6705
1260.55	42.7146
1260.82	45.6988
1261.1	36.1061
1261.37	54.7371
1261.65	40.0186
1261.92	34.8206
1262.2	65.4397
1262.48	74.3625
1262.75	70.4294
1263.02	95.7382
1263.3	84.6732
1263.58	115.693
1263.85	126.586
1264.13	119.629
1264.4	112.751
1264.68	97.2706
1264.95	59.284
1265.23	77.9412
1265.5	25.639
1265.78	46.4601
1266.05	27.5284
1266.33	30.6166
1266.6	43.1423
1266.88	17.0303
1267.15	21.2442
1267.43	34.8882
1267.7	16.1349
1267.98	25.6254
1268.25	14.2084
1268.53	2.83008
1268.8	13.4033
1269.08	6.10663
1269.35	19.7473
1269.63	28.1375
1269.9	14.447
1270.18	1.74243
1270.45	11.0013
1270.73	26.5747
1271	11.7746
1271.28	16.8925
1271.55	13.6809
1271.83	27.1843
1272.1	24.0325
1272.38	13.6188
1272.65	24.1596
1272.93	1.23453
1273.2	15.9599
1273.47	30.6945
1273.75	-0.680725
1274.03	18.2509
1274.3	24.6088
1274.57	20.4384
1274.85	36.1479
1275.12	26.6461
1275.4	24.5056
1275.67	37.0965
1275.95	12.9917
1276.22	18.2664
1276.5	28.8187
1276.77	27.8023
1277.05	21.5402
1277.32	24.7057
1277.6	31.0682
1277.87	35.3314
1278.14	30.1361
1278.42	21.7683
1278.69	34.4193
1278.97	40.809
1279.24	43.9922
1279.52	50.333
1279.79	45.0051
1280.07	70.1711
1280.34	69.0203
1280.61	84.735
1280.89	97.351
1281.16	135.223
1281.44	182.66
1281.71	238.58
1281.99	318.624
1282.26	452.246
1282.53	589.135
1282.81	780.82
1283.08	1087.95
1283.36	1402.82
1283.63	1765.98
1283.91	1973.21
1284.18	1979.42
1284.45	1610.56
1284.73	1125.83
1285	720.377
1285.28	434.76
1285.55	297.398
1285.83	196.045
1286.1	160.218
1286.37	123.44
1286.65	102.333
1286.92	77.9822
1287.2	56.8771
1287.47	50.4915
1287.75	59.859
1288.02	48.1602
1288.29	40.7054
1288.57	18.5606
1288.84	41.6844
1289.12	37.4657
1289.39	18.5438
1289.66	36.476
1289.94	39.6756
1290.21	42.8868
1290.49	11.3212
1290.76	16.5468
1291.03	26.9953
1291.31	27.9854
1291.58	18.4608
1291.86	28.9492
1292.13	22.5753
1292.4	15.1678
1292.68	3.57016
1292.95	36.1574
1293.22	10.8103
1293.5	7.63318
1293.77	26.6909
1294.05	12.0728
1294.32	15.373
1294.59	4.83813
1294.87	7.96539
1295.14	11.0626
1295.42	18.4818
1295.69	5.95944
1295.96	25.1458
1296.24	-8.3941
1296.51	20.2669
1296.79	16.0462
1297.06	-18.8607
1297.33	8.54144
1297.61	15.8315
1297.88	3.03302
1298.15	17.6932
1298.43	5.93173
1298.7	2.77512
1298.97	0.595642
1299.25	19.4995
1299.52	-4.87454
1299.79	17.1939
1300.07	15.043
1300.34	17.1926
1300.62	6.64194
1300.89	-1.82825
1301.16	-6.10483
1301.44	-0.874786
1301.71	13.8927
1301.98	11.8165
1302.25	7.62222
1302.53	0.229187
1302.8	-12.4686
1303.08	-3.00061
1303.35	-0.947052
1303.62	6.36914
1303.9	16.8224
1304.17	-2.23181
1304.44	1.96793
1304.72	9.32806
1304.99	6.12253
1305.26	2.87296
1305.54	13.3263
1305.81	6.86795
1306.08	-12.2477
1306.35	-6.04459
1306.63	-4.04489
1306.9	8.54395
1307.18	-0.980408
1307.45	14.8444
1307.72	7.44257
1308	11.6247
1308.27	3.15314
1308.54	-11.6228
1308.81	11.5273
1309.09	5.19092
1309.36	1.00461
1309.63	9.47217
1309.91	6.33609
1310.18	1.06757
1310.45	4.19348
1310.73	-16.9671
1311	-2.22253
1311.27	8.3187
1311.55	-6.46387
1311.82	10.4122
1312.09	3.02856
1312.37	-7.48752
1312.64	-8.51419
1312.91	-5.3475
1313.18	19.9482
1313.46	21.9653
1313.73	11.366
1314	-7.69998
1314.28	10.1877
1314.55	3.82648
1314.82	8.04538
1315.09	-5.66504
1315.37	7.02731
1315.64	10.2169
1315.91	6.02005
1316.18	4.99054
1316.46	9.17172
1316.73	5.95087
1317	2.7392
1317.28	2.70203
1317.55	9.0119
1317.82	13.2699
1318.09	2.72162
1318.37	0.60907
1318.64	0.600128
1318.91	-11.0368
1319.18	2.67389
1319.46	1.58078
1319.73	3.65265
1320	-8.00662
1320.28	4.67249
1320.55	-12.2499
1320.82	18.3402
1321.09	-1.81314
1321.37	5.46558
1321.64	-24.2334
1321.91	-13.8222
1322.18	-4.41901
1322.46	-4.55447
1322.73	10.1353
1323	10.055
1323.27	5.75293
1323.55	-4.89117
1323.82	9.89349
1324.09	30.9779
1324.36	-9.10687
1324.64	-4.92337
1324.91	-7.04819
1325.18	4.51709
1325.45	-4.96951
1325.73	-2.98447
1326	-2.13168
1326.27	-1.32941
1326.54	0.469452
1326.81	8.74734
1327.09	8.69504
1327.36	-5.92252
1327.63	8.00739
1327.9	-11.884
1328.18	9.30881
1328.45	-1.0947
1328.72	-11.505
1328.99	9.698
1329.27	10.7719
1329.54	10.7009
1329.81	2.28436
1330.08	4.35739
1330.35	-12.5744
1330.63	-14.754
1330.9	-5.35281
1331.17	-4.41187
1331.44	-1.38745
1331.71	-3.66913
1331.99	8.77631
1332.26	3.35168
1332.53	17.9557
1332.8	31.489
1333.07	13.4398
1333.35	-5.65332
1333.62	-3.69864
1333.89	0.365662
1334.16	3.38431
1334.43	-3.04742
1334.71	26.2287
1334.98	0.913666
1335.25	8.15817
1335.52	-0.333008
1335.79	9.01611
1336.07	13.1225
1336.34	-6.89032
1336.61	14.0058
1336.88	-3.89087
1337.15	13.8681
1337.43	5.42627
1337.7	1.18271
1337.97	6.36224
1338.24	10.436
1338.51	-0.150787
1338.78	5.01151
1339.06	8.06964
1339.33	-1.41458
1339.6	11.1228
1339.87	-1.44263
1340.14	1.70578
1340.42	12.1709
1340.69	-2.48993
1340.96	14.2647
1341.23	2.72144
1341.5	-2.54767
1341.77	-8.87378
1342.04	-2.65009
1342.32	14.0211
1342.59	0.310333
1342.86	4.37466
1343.13	-13.5296
1343.4	-0.000488281
1343.67	19.8266
1343.95	8.2941
1344.22	7.23083
1344.49	5.133
1344.76	6.16528
1345.03	7.16013
1345.3	1.85156
1345.58	2.79233
1345.85	-6.75424
1346.12	8.80432
1346.39	11.7849
1346.66	8.43405
1346.93	-5.27682
1347.2	6.06696
1347.47	-5.54547
1347.75	4.75818
1348.02	-3.66888
1348.29	-0.605469
1348.56	24.3609
1348.83	11.8114
1349.1	-3.89584
1349.37	10.6031
1349.65	-18.6552
1349.92	-10.4061
1350.19	9.29462
1350.46	-1.20053
1350.73	8.08185
1351	3.80728
1351.27	3.69284
1351.54	15.057
1351.81	-0.660431
1352.09	9.69601
1352.36	-2.80014
1352.63	18.0343
1352.9	-4.76984
1353.17	6.78622
1353.44	8.92175
1353.71	13.4262
1353.98	20.0579
1354.25	-1.18066
1354.53	13.807
1354.8	4.01938
1355.07	8.21039
1355.34	14.469
1355.61	20.5453
1355.88	-1.35229
1356.15	9.16306
1356.42	1.91254
1356.69	21.5527
1356.96	16.3075
1357.24	8.99115
1357.51	6.86371
1357.78	9.91574
1358.05	13.9947
1358.32	2.49487
1358.59	9.67685
1358.86	26.2004
1359.13	3.27951
1359.4	24.9743
1359.67	10.384
1359.94	7.211
1360.22	6.0592
1360.49	11.1111
1360.76	-2.48322
1361.03	24.367
1361.3	11.8936
1361.57	24.3084
1361.84	15.9969
1362.11	14.9285
1362.38	11.7632
1362.65	3.42639
1362.92	18.9093
1363.19	13.7094
1363.46	13.7271
1363.73	14.826
1364	27.2992
1364.28	13.8781
1364.55	30.4393
1364.82	20.0442
1365.09	15.8483
1365.36	16.8009
1365.63	22.9113
1365.9	27.9774
1366.17	10.28
1366.44	15.3524
1366.71	24.5555
1366.98	13.0494
1367.25	18.0664
1367.52	9.72482
1367.79	10.7103
1368.06	21.0927
1368.33	24.219
1368.6	48.0131
1368.87	55.2699
1369.15	103.88
1369.41	105.983
1369.68	78.0931
1369.95	50.1134
1370.23	37.6495
1370.5	22.0872
1370.77	10.6025
1371.04	30.1732
1371.31	23.8882
1371.58	32.0244
1371.85	36.0025
1372.12	20.3415
1372.39	21.2044
1372.66	23.1119
1372.93	16.8065
1373.2	29.0981
1373.47	34.1873
1373.74	38.2483
1374.01	32.0131
1374.28	20.6353
1374.55	25.7501
1374.82	40.1389
1375.09	25.6753
1375.36	27.6747
1375.63	40.0466
1375.9	37.005
1376.17	41.1086
1376.44	24.6436
1376.71	31.7376
1376.98	38.8329
1377.25	29.4155
1377.52	46.7223
1377.79	40.598
1378.06	44.8227
1378.33	46.024
1378.6	37.9978
1378.87	48.5434
1379.14	52.7372
1379.41	38.2804
1379.68	40.2779
1379.95	55.6689
1380.22	71.0253
1380.49	49.1843
1380.76	68.3688
1381.03	60.944
1381.3	68.9915
1381.57	81.4064
1381.84	44.2566
1382.11	75.9046
1382.38	65.3871
1382.65	76.4803
1382.92	86.5653
1383.19	100.737
1383.46	103.667
1383.73	117.871
1384	147.508
1384.27	128.97
1384.54	121.806
1384.81	205.923
1385.08	236.794
1385.34	323.133
1385.61	412.691
1385.88	535.054
1386.15	795.012
1386.42	1234.66
1386.69	1933.39
1386.96	3067.58
1387.23	4251.83
1387.5	4530.37
1387.77	3449.4
1388.04	2064.39
1388.31	1132.9
1388.58	629.218
1388.85	404.328
1389.12	282.178
1389.39	215.866
1389.66	147.115
1389.93	138.96
1390.2	104.895
1390.46	80.9003
1390.73	99.175
1391	85.8218
1391.27	92.7914
1391.54	57.8977
1391.81	74.2461
1392.08	52.6159
1392.35	53.5165
1392.62	41.1202
1392.89	54.3496
1393.16	54.2808
1393.43	38.8683
1393.7	41.8884
1393.97	26.4901
1394.23	19.2859
1394.5	34.5997
1394.77	31.4969
1395.04	42.7291
1395.31	23.3286
1395.58	33.6289
1395.85	19.3451
1396.12	42.9035
1396.39	52.0963
1396.66	29.5346
1396.93	26.4071
1397.2	28.3927
1397.46	16.0285
1397.73	16.9678
1398	18.9675
1398.27	26.1169
1398.54	34.3231
1398.81	21.0699
1399.08	15.9786
1399.35	27.2492
1399.62	38.5729
1399.89	28.3812
1400.16	16.1343
1400.42	3.84213
1400.69	26.414
1400.96	24.4686
1401.23	30.6576
1401.5	30.6356
1401.77	32.73
1402.04	31.6967
1402.31	10.324
1402.58	20.8029
1402.84	8.74869
1403.11	24.3171
1403.38	40.8712
1403.65	11.1613
1403.92	38.8785
1404.19	24.4117
1404.46	43.6559
1404.73	27.2997
1404.99	27.2555
1405.26	24.1207
1405.53	34.2959
1405.8	57.7932
1406.07	40.2759
1406.34	54.5502
1406.61	70.8958
1406.87	71.8769
1407.14	66.7678
1407.41	93.447
1407.68	119.112
1407.95	152.97
1408.22	169.401
1408.49	205.315
1408.76	260.717
1409.02	236.149
1409.29	212.613
1409.56	152.143
1409.83	128.589
1410.1	92.7086
1410.37	62.9547
1410.63	51.5747
1410.9	51.4427
1411.17	34.8943
1411.44	38.8853
1411.71	36.753
1411.98	34.6395
1412.25	30.5193
1412.51	14.18
1412.78	20.4426
1413.05	17.6248
1413.32	33.5236
1413.59	14.263
1413.86	14.962
1414.12	8.25137
1414.39	8.33606
1414.66	20.9194
1414.93	26.2438
1415.2	20.0487
1415.47	-1.50296
1415.73	31.3453
1416	12.8705
1416.27	4.6835
1416.54	-6.58224
1416.81	16.0437
1417.07	10.9449
1417.34	8.9325
1417.61	15.1386
1417.88	34.6985
1418.15	21.3582
1418.42	21.3592
1418.68	32.6736
1418.95	3.91211
1419.22	12.1315
1419.49	8.02133
1419.76	12.0802
1420.02	-5.4715
1420.29	5.74063
1420.56	21.0623
1420.83	12.7532
1421.1	16.7617
1421.36	15.6498
1421.63	6.367
1421.9	4.33014
1422.17	1.35074
1422.44	6.61426
1422.7	29.3474
1422.97	22.377
1423.24	17.5901
1423.51	21.0435
1423.77	21.059
1424.04	10.9351
1424.31	23.3447
1424.58	18.8265
1424.85	7.55161
1425.11	32.2572
1425.38	7.93814
1425.65	3.87991
1425.92	16.1201
1426.19	3.94586
1426.45	13.1396
1426.72	14.0824
1426.99	30.3721
1427.26	0.515167
1427.52	20.8846
1427.79	-6.95721
1428.06	24.6501
1428.33	14.3323
1428.59	5.08145
1428.86	21.4603
1429.13	-12.3145
1429.4	8.18985
1429.67	25.6389
1429.93	7.25827
1430.2	9.38605
1430.47	2.31302
1430.74	0.339783
1431	-8.77518
1431.27	4.72482
1431.54	1.77701
1431.81	17.2325
1432.07	5.93411
1432.34	8.9274
1432.61	9.8457
1432.87	-3.56244
1433.14	11.6881
1433.41	4.34625
1433.68	3.13809
1433.95	3.99091
1434.21	-11.4804
1434.48	3.82892
1434.75	17.326
1435.01	-1.0401
1435.28	-19.4791
1435.55	4.08127
1435.82	13.2836
1436.08	1.98178
1436.35	21.4132
1436.62	4.98026
1436.89	-10.4359
1437.15	15.1239
1437.42	13.0281
1437.69	0.713867
1437.95	0.657532
1438.22	6.77029
1438.49	0.634491
1438.76	4.78256
1439.02	16.0776
1439.29	3.78558
1439.56	9.94287
1439.82	-5.37466
1440.09	30.5769
1440.36	-4.17035
1440.63	0.994659
1440.89	-7.19604
1441.16	8.17999
1441.43	-3.08942
1441.69	-4.15759
1441.96	10.1172
1442.23	-12.4855
1442.49	7.06537
1442.76	15.2671
1443.03	-15.431
1443.3	12.1962
1443.56	17.2388
1443.83	0.762299
1444.1	23.2616
1444.36	2.73102
1444.63	-3.40781
1444.9	10.0255
1445.16	8.06223
1445.43	-7.20947
1445.7	5.05545
1445.97	-3.20352
1446.23	8.03271
1446.5	1.82996
1446.77	0.76004
1447.03	-10.5664
1447.3	8.87338
1447.57	7.79227
1447.83	2.59985
1448.1	9.72119
1448.37	6.62875
1448.63	13.864
1448.9	19.0722
1449.17	-0.403656
1449.43	-2.47479
1449.7	-20.9841
1449.97	-4.64114
1450.23	-6.77194
1450.5	14.6759
1450.77	8.4751
1451.03	-11.0468
1451.3	-5.96863
1451.57	7.3049
1451.83	-12.2212
1452.1	-5.10266
1452.37	9.19519
1452.63	0.966309
1452.9	1.98117
1453.17	7.10843
1453.43	5.09064
1453.7	13.3127
1453.97	3.05237
1454.23	-7.23938
1454.5	-2.1535
1454.77	14.2256
1455.03	6.01291
1455.3	-3.23734
1455.56	-5.32935
1455.83	0.810791
1456.1	1.88971
1456.36	4.98688
1456.63	-1.17987
1456.9	1.8443
1457.16	17.1291
1457.43	6.79968
1457.7	0.604767
1457.96	1.58612
1458.23	14.8695
1458.49	-6.65695
1458.76	-1.54211
1459.03	0.512665
1459.29	1.53925
1459.56	9.73257
1459.82	5.62598
1460.09	15.8386
1460.36	5.54904
1460.62	-1.66891
1460.89	2.37698
1461.16	13.5819
1461.42	14.5339
1461.69	-14.2099
1461.95	-5.06973
1462.22	-15.3918
1462.49	-2.17578
1462.75	-3.29861
1463.02	-2.38138
1463.28	0.57605
1463.55	6.5961
1463.82	6.49054
1464.08	-3.76633
1464.35	-2.63684
1464.61	-4.51578
1464.88	3.79712
1465.15	-0.125946
1465.41	-8.64178
1465.68	-8.3606
1465.94	-4.62219
1466.21	2.4624
1466.48	-4.57666
1466.74	-10.7582
1467.01	8.43372
1467.27	-7.9635
1467.54	6.33875
1467.8	-0.84848
1468.07	-5.99823
1468.34	9.26532
1468.6	-6.0629
1468.87	17.3688
1469.13	-5.1153
1469.4	-2.11569
1469.67	11.0716
1469.93	10.9714
1470.2	-1.37936
1470.46	-0.457428
1470.73	4.5614
1470.99	9.58722
1471.26	-4.72772
1471.53	-4.80368
1471.79	12.4108
1472.06	1.13043
1472.32	0.0618591
1472.59	12.2443
1472.85	-1.02542
1473.12	-17.3501
1473.39	-11.2921
1473.65	3.89859
1473.92	-1.27328
1474.18	-3.37912
1474.45	-8.51801
1474.71	1.63559
1474.98	2.66827
1475.24	-0.379852
1475.51	-1.41431
1475.78	-3.48462
1476.04	6.63388
1476.31	3.50357
1476.57	-4.69855
1476.84	13.5573
1477.1	-1.79059
1477.37	-1.87939
1477.63	6.20029
1477.9	-1.97269
1478.16	-3.02261
1478.43	12.1605
1478.69	5.95636
1478.96	-3.27521
1479.22	-0.308716
1479.49	-3.44937
1479.76	-17.7721
1480.02	6.49915
1480.29	-7.82886
1480.55	-3.93427
1480.82	5.06042
1481.08	-4.17648
1481.35	0.836212
1481.61	13.9312
1481.88	-12.4322
1482.14	4.85751
1482.41	-2.1954
1482.67	14.1061
1482.94	-12.2488
1483.2	14.123
1483.47	0.950562
1483.73	-6.15466
1484	-13.2859
1484.26	5.97012
1484.53	2.73428
1484.79	17.6991
1485.06	8.10095
1485.32	-8.67661
1485.59	-4.84796
1485.85	-9.22604
1486.12	-8.32935
1486.38	1.89294
1486.65	6.07837
1486.91	-1.47256
1487.18	-14.4624
1487.44	-7.33374
1487.71	0.627899
1487.97	11.6508
1488.24	5.49097
1488.5	6.41135
1488.77	-4.84067
1489.03	-1.92697
1489.3	14.1629
1489.56	-8.16913
1489.83	0.87677
1490.09	-8.2818
1490.36	-6.28696
1490.62	-0.248627
1490.89	-4.36954
1491.15	-10.5436
1491.42	7.55292
1491.68	-0.6008
1491.95	-9.74402
1492.21	2.36069
1492.48	-15.8461
1492.74	7.3681
1493	0.243622
1493.27	10.313
1493.53	-10.9436
1493.8	3.15421
1494.06	-1.94186
1494.33	4.10199
1494.59	-12.0716
1494.86	11.1881
1495.12	0.0247803
1495.39	9.02991
1495.65	12.923
1495.92	-4.42773
1496.18	5.5278
1496.45	7.44458
1496.71	0.294434
1496.97	5.26404
1497.24	14.2641
1497.5	6.15912
1497.77	-4.97369
1498.03	-5.02396
1498.3	-3.0419
1498.56	10.054
1498.82	5.99899
1499.09	-0.0698853
1499.35	-2.09821
1499.62	-0.0803833
1499.88	2.957
1500.15	5.99341
1500.41	-6.13416
1500.68	1.91177
1500.94	13.9849
1501.2	4.85852
1501.47	2.76764
1501.73	8.71555
1502	-3.44818
1502.26	-7.52466
1502.52	-0.504425
1502.79	-1.58029
1503.05	-2.70367
1503.32	9.29117
1503.58	3.16312
1503.85	10.1193
1504.11	8.07272
1504.37	8.08432
1504.64	17.1511
1504.9	-0.0174255
1505.17	-13.1737
1505.43	9.94781
1505.7	12.8799
1505.96	-5.40866
1506.22	10.5396
1506.49	4.43747
1506.75	-5.67813
1507.02	11.4377
1507.28	6.43201
1507.54	6.41959
1507.81	11.448
1508.07	17.4617
1508.34	3.29733
1508.6	-23.9586
1508.86	-1.8129
1509.13	6.23444
1509.39	4.19644
1509.66	-7.93018
1509.92	2.11545
1510.18	-7.94543
1510.45	16.2391
1510.71	10.0829
1510.98	7.95755
1511.24	-4.25449
1511.5	5.6723
1511.77	-7.60925
1512.03	17.301
1512.29	9.00473
1512.56	-0.276093
1512.82	-7.51001
1513.08	-7.64389
1513.35	-21.8229
1513.61	7.18576
1513.88	-2.91583
1514.14	6.18631
1514.4	2.29987
1514.67	3.31549
1514.93	13.2829
1515.2	7.13153
1515.46	7.99445
1515.72	-4.18588
1515.99	0.67807
1516.25	5.54117
1516.51	6.42645
1516.78	8.36111
1517.04	3.28445
1517.3	-3.79147
1517.57	4.18854
1517.83	2.16074
1518.09	-9.87198
1518.36	-6.82043
1518.62	6.20984
1518.88	-2.81747
1519.15	3.19485
1519.41	8.21732
1519.67	14.2396
1519.94	-6.83887
1520.2	-10.8912
1520.47	8.10287
1520.73	2.02432
1520.99	8.03741
1521.26	9.05197
1521.52	-7.99768
1521.78	-5.00357
1522.05	17.0238
1522.31	1.90604
1522.57	7.84866
1522.84	4.75876
1523.1	8.69711
1523.36	-12.4616
