#Acq. time (s)=	30
#Accumulations=	2
#Range (cm-¹)=	1200...2365
#Windows=	3
#Auto scanning=	Off
#Autofocus=	Off
#Macrospot=	Off
#AutoExposure=	Off
#Spike filter=	Multiple accum.
#Delay time (s)=	2
#Binning=	1
#Readout mode=	Signal
#DeNoise=	Off
#ICS correction=	On
#Dark correction=	Off
#Inst. Process=	Off
#Detector Gain=	Best Dynamic
#Detector ADC=	50 kHz HS
#Detector temperature (°C)=	-60.09
#Instrument=	LabRAM HR Evol
#Detector=	SIN-EM FIVIS
#Objective=	x100_VIS
#Grating=	1800 (450-850nm)
#ND Filter=	100%
#Laser=	532nm_Edge
#Hole=	49.98
#Temperature=	0
#Range=	Visible
#StageXY=	75x50mm Scan+
#StageZ=	Z motor
#X (µm)=	0
#Y (µm)=	0
#Z (µm)=	-245.6
#Full time(mm:ss)=	3:23
#Project=	21_11_04
#Sample=	BU19w
#Site=	
#Title=	BU19w-E-FF11b-FI01-V_1800 (450-850nm)_532nm_Edge_100%_x100_VIS_H50um_30sX2
#Remark=	
#Date=	04.11.2021 18:28
#Acquired=	04.11.2021 18:28:15
#Base:Fit=	16.12.2021 17:39:50
#Base:Fit=	16.12.2021 17:46:27
#Base:Sub=	16.12.2021 17:46:29
1202.73	3.22269
1203.01	1.02846
1203.29	6.35117
1203.57	-0.131861
1203.85	5.20501
1204.12	-1.25794
1204.4	4.08897
1204.68	2.97901
1204.96	2.93925
1205.24	3.97402
1205.51	2.85885
1205.79	1.74559
1206.07	0.63348
1206.35	-0.477594
1206.63	4.84095
1206.9	-2.69096
1207.18	-2.72138
1207.46	1.53079
1207.74	-2.77952
1208.01	3.60957
1208.29	3.57561
1208.57	-1.8042
1208.85	1.37456
1209.13	-2.92726
1209.4	1.32439
1209.68	0.227489
1209.96	2.33144
1210.23	3.36234
1210.51	1.19161
1210.79	4.35963
1211.07	1.12362
1211.35	1.08957
1211.62	-4.27693
1211.9	-0.0445099
1212.18	3.12118
1212.46	0.958237
1212.73	-3.33169
1213.01	-0.163383
1213.29	4.06781
1213.57	-3.40804
1213.84	-1.29893
1214.12	-1.31944
1214.4	-0.275879
1214.68	-3.49171
1214.95	2.8735
1215.23	0.721584
1215.51	-1.43412
1215.78	-2.5286
1216.06	-0.434433
1216.34	-3.65782
1216.62	2.68843
1216.9	-0.529644
1217.17	2.62696
1217.45	-0.587566
1217.73	-0.614738
1218	-3.82616
1218.28	0.394474
1218.56	1.43351
1218.84	3.53292
1219.11	-3.91635
1219.39	-0.759464
1219.67	-1.84197
1219.94	-0.79974
1220.22	1.30089
1220.5	3.40135
1220.77	3.37571
1221.05	-0.889126
1221.33	-0.915501
1221.61	1.17365
1221.88	-0.977856
1222.16	-4.18774
1222.44	1.06937
1222.72	-1.07863
1222.99	-0.0554466
1223.27	3.08651
1223.55	-3.28357
1223.82	3.02609
1224.1	0.890156
1224.38	4.03315
1224.65	4.01344
1224.93	5.05308
1225.21	5.04219
1225.49	5.02938
1225.76	1.84604
1226.04	3.93819
1226.32	3.91646
1226.59	-2.44012
1226.87	2.80789
1227.15	5.9263
1227.42	1.66543
1227.7	2.68171
1227.98	2.63702
1228.25	2.59027
1228.53	-2.69275
1228.81	3.64878
1229.08	3.71953
1229.36	4.76998
1229.64	-0.552338
1229.91	3.62605
1230.19	2.55562
1230.47	2.5317
1230.74	-2.79733
1231.02	-2.83081
1231.3	3.46105
1231.57	2.39477
1231.85	-0.775551
1232.13	3.41078
1232.4	3.39492
1232.68	4.42774
1232.96	0.209534
1233.23	1.2468
1233.51	-5.06769
1233.79	-1.92694
1234.06	-0.885899
1234.34	4.36125
1234.62	-4.05701
1234.89	2.23899
1235.17	2.23004
1235.45	2.22078
1235.72	1.15748
1236	0.0898399
1236.27	-0.979244
1236.55	2.15543
1236.83	0.0301704
1237.1	-4.19577
1237.38	1.03071
1237.66	-4.24191
1237.93	0.980495
1238.21	-0.0922165
1238.49	-0.110943
1238.76	1.96893
1239.04	-1.19212
1239.31	-0.158337
1239.59	-1.21964
1239.87	-0.183617
1240.14	-1.24268
1240.42	-2.3008
1240.7	-1.26175
1240.97	3.96846
1241.25	-0.242374
1241.52	3.93322
1241.8	0.776917
1242.08	-2.37457
1242.35	2.8567
1242.63	0.75774
1242.91	-3.44474
1243.18	0.736679
1243.46	-0.319618
1243.74	-2.42482
1244.01	1.75624
1244.29	2.79197
1244.56	-2.4637
1244.84	2.75699
1245.11	-2.50024
1245.39	0.619305
1245.67	-0.445091
1245.94	0.590107
1246.22	1.62587
1246.49	-0.475849
1246.77	1.60637
1247.05	-0.498039
1247.32	3.67808
1247.6	2.61386
1247.87	-2.63693
1248.15	1.53547
1248.43	6.75688
1248.7	1.52227
1248.98	1.51435
1249.25	2.54976
1249.53	-0.595913
1249.8	-1.65268
1250.08	-0.623432
1250.36	0.406002
1250.63	2.48136
1250.91	3.51207
1251.18	0.36414
1251.46	0.350693
1251.74	5.55861
1252.01	-4.89693
1252.29	1.35365
1252.56	1.33959
1252.84	-0.759216
1253.11	4.45035
1253.39	-1.81408
1253.66	1.31675
1253.94	3.4058
1254.22	1.31666
1254.49	3.40015
1254.77	1.30746
1255.04	2.34699
1255.32	-0.792755
1255.59	2.33449
1255.87	1.28686
1256.14	1.28585
1256.42	1.28366
1256.7	-1.85561
1256.97	1.26855
1257.25	5.43662
1257.52	4.38419
1257.8	5.42016
1258.07	6.45592
1258.35	6.44197
1258.62	5.38903
1258.9	0.169044
1259.18	5.38581
1259.45	2.26744
1259.73	-1.91732
1260	2.24751
1260.28	1.18657
1260.55	3.25888
1260.83	7.42016
1261.1	4.28222
1261.38	9.52323
1261.65	5.38779
1261.93	8.59147
1262.2	7.47924
1262.48	9.51046
1262.75	14.6648
1263.03	16.7922
1263.31	13.6987
1263.58	14.7756
1263.85	11.6975
1264.13	8.52439
1264.41	11.6402
1264.68	4.31936
1264.96	10.5901
1265.23	3.26059
1265.51	9.5257
1265.78	8.48046
1266.06	7.43803
1266.33	6.39784
1266.61	7.44996
1266.88	10.5959
1267.16	15.8369
1267.43	5.38755
1267.71	8.54103
1267.98	12.7494
1268.26	16.9479
1268.53	11.7173
1268.81	7.53183
1269.08	5.43726
1269.36	11.7139
1269.63	13.795
1269.91	11.6867
1270.18	22.1442
1270.46	9.57188
1270.73	12.7057
1271.01	10.6079
1271.28	12.6984
1271.56	9.56671
1271.83	11.6718
1272.1	9.59288
1272.38	14.8446
1272.65	14.857
1272.93	10.678
1273.2	10.69
1273.48	12.7994
1273.75	13.8584
1274.03	14.9123
1274.3	15.9613
1274.58	15.9608
1274.85	14.9156
1275.13	10.7268
1275.4	12.8339
1275.68	11.7953
1275.95	17.0545
1276.22	12.8654
1276.5	10.7738
1276.78	5.5325
1277.05	17.1
1277.32	13.9613
1277.6	8.71766
1277.87	15.0348
1278.15	16.1006
1278.42	9.80201
1278.7	15.0714
1278.97	10.8663
1279.24	10.865
1279.52	9.80984
1279.79	14.0151
1280.07	18.2261
1280.34	15.0764
1280.62	17.1922
1280.89	15.1061
1281.17	21.4347
1281.44	19.3322
1281.71	29.8636
1281.99	31.982
1282.26	38.2972
1282.54	64.5893
1282.81	69.7629
1283.09	97.0254
1283.36	132.76
1283.63	147.421
1283.91	147.863
1284.18	103.705
1284.46	68.9576
1284.73	45.7424
1285.01	33.0732
1285.28	19.3814
1285.55	17.291
1285.83	10.9836
1286.1	7.81631
1286.38	9.92485
1286.65	4.66304
1286.93	9.926
1287.2	5.71129
1287.47	5.70881
1287.75	9.92062
1288.02	7.8211
1288.3	6.77415
1288.57	1.52085
1288.84	0.478912
1289.12	8.91278
1289.39	5.7664
1289.67	5.77945
1289.94	2.6277
1290.21	5.78751
1290.49	3.68235
1290.76	2.63288
1291.04	3.69059
1291.31	2.64142
1291.58	3.69798
1291.86	2.65203
1292.13	0.551739
1292.4	3.71166
1292.68	0.55724
1292.95	1.62185
1293.23	1.6435
1293.5	4.8256
1293.77	0.626106
1294.05	1.68435
1294.32	-1.47357
1294.59	3.80397
1294.87	3.82387
1295.14	4.9039
1295.42	3.87885
1295.69	0.738289
1295.96	3.92218
1296.24	-0.298668
1296.51	-0.29388
1296.79	3.93374
1297.06	2.87593
1297.33	2.87387
1297.61	-0.297504
1297.88	4.98579
1298.15	0.770817
1298.43	1.82742
1298.7	1.82831
1298.97	-3.44869
1299.25	3.94387
1299.52	1.84294
1299.79	6.07843
1300.07	-2.35969
1300.34	3.98175
1300.61	6.0984
1300.89	-3.39679
1301.16	7.17332
1301.44	4.01893
1301.71	5.08664
1301.98	1.92676
1302.26	-1.23494
1302.53	-2.28554
1302.8	0.887295
1303.08	-0.166801
1303.35	1.94897
1303.62	5.12413
1303.9	-0.147766
1304.17	0.915455
1304.44	-0.135647
1304.72	5.14517
1304.99	-1.18832
1305.26	0.922398
1305.54	-0.133327
1305.81	-0.133114
1306.08	-1.18453
1306.36	-1.17804
1306.63	3.05047
1306.9	-0.103741
1307.18	-2.20522
1307.45	-1.1431
1307.72	-3.24294
1307.99	0.982983
1308.27	-0.0633888
1308.54	-0.0508423
1308.81	-2.14777
1309.09	2.0861
1309.36	-0.0116653
1309.63	-2.11347
1309.91	0.00344849
1310.18	-3.15472
1310.45	3.18642
1310.73	0.0309219
1311	1.09649
1311.27	-4.1705
1311.54	-3.10158
1311.82	3.24723
1312.09	3.25968
1312.36	-2.01001
1312.64	-0.95047
1312.91	2.22244
1313.18	1.17387
1313.45	-0.931496
1313.73	3.29847
1314	2.25323
1314.27	-5.12423
1314.55	-3.00021
1314.82	1.23632
1315.09	-0.862209
1315.36	-1.90483
1315.64	0.218094
1315.91	3.39367
1316.18	2.34491
1316.46	3.40915
1316.73	0.249851
1317	2.37428
1317.28	2.38823
1317.55	0.287746
1317.82	3.4682
1318.09	0.309582
1318.37	-2.84985
1318.64	4.55444
1318.91	4.56271
1319.18	0.345417
1319.46	2.46883
1319.73	0.366955
1320	0.375885
1320.27	-1.73063
1320.55	-0.670818
1320.82	1.44218
1321.09	0.385605
1321.36	-0.667389
1321.64	-1.72088
1321.91	-0.662128
1322.18	-1.71135
1322.45	1.45792
1322.73	1.46068
1323	2.52588
1323.27	-3.78804
1323.54	-4.8314
1323.82	0.450264
1324.09	0.460953
1324.36	1.5243
1324.63	0.482903
1324.91	1.54293
1325.18	-2.67615
1325.45	-2.6812
1325.72	-0.588734
1325.99	2.56419
1326.27	0.463615
1326.54	1.53085
1326.81	-0.541119
1327.08	0.536575
1327.36	2.66611
1327.63	2.69035
1327.9	1.66108
1328.17	2.73892
1328.45	1.70374
1328.72	-2.51221
1328.99	1.72255
1329.26	3.84287
1329.53	-0.368687
1329.81	0.693344
1330.08	-4.57487
1330.35	-1.40685
1330.62	-2.45901
1330.9	3.86451
1331.17	-1.40863
1331.44	-0.357471
1331.71	0.69696
1331.98	3.85516
1332.26	0.69788
1332.53	-0.355419
1332.8	-2.45801
1333.07	0.696003
1333.34	-0.353371
1333.62	0.698555
1333.89	1.75063
1334.16	2.8025
1334.43	2.80545
1334.7	2.80964
1334.98	-2.43221
1335.25	-0.328651
1335.52	3.87217
1335.79	-0.31723
1336.06	2.83496
1336.34	2.84155
1336.61	0.752567
1336.88	2.85717
1337.15	1.81707
1337.42	-2.36914
1337.69	0.775703
1337.96	1.82907
1338.24	-1.30658
1338.51	-4.44181
1338.78	0.80349
1339.05	0.814995
1339.32	5.01709
1339.6	0.841118
1339.87	0.853058
1340.14	-3.32299
1340.41	0.877655
1340.68	0.887634
1340.95	0.89711
1341.23	4.04659
1341.5	0.91206
1341.77	7.19744
1342.04	1.96664
1342.31	3.01484
1342.58	1.97305
1342.86	0.935528
1343.13	-3.23815
1343.4	0.9562
1343.67	2.01377
1343.94	2.02576
1344.21	2.03563
1344.48	3.08803
1344.76	-1.08944
1345.03	-3.17697
1345.3	5.1849
1345.57	2.05183
1345.84	3.09253
1346.11	3.08916
1346.39	-0.0399399
1346.66	1.00469
1346.93	1.00637
1347.2	3.09547
1347.47	3.10178
1347.74	-1.05942
1348.01	7.28736
1348.28	-1.04237
1348.55	3.13131
1348.83	2.09439
1349.1	5.22399
1349.37	4.18746
1349.64	1.06915
1349.91	-1.00712
1350.18	1.07907
1350.45	-2.03907
1350.73	2.12753
1351	3.17161
1351.27	2.13807
1351.54	4.22792
1351.81	1.1222
1352.08	2.17983
1352.35	-1.96027
1352.62	6.3815
1352.89	1.20998
1353.17	4.38213
1353.44	4.38527
1353.71	0.18581
1353.98	-0.883459
1354.25	1.19753
1354.52	4.33101
1354.79	3.29679
1355.06	1.21727
1355.33	4.3511
1355.6	0.222137
1355.88	0.223801
1356.15	3.34827
1356.42	4.39542
1356.69	4.40395
1356.96	5.44981
1357.23	8.57078
1357.5	4.42327
1357.77	3.3905
1358.04	4.43356
1358.31	3.40137
1358.58	4.44252
1358.86	3.41126
1359.13	3.41836
1359.4	3.42395
1359.67	3.42414
1359.94	8.60732
1360.21	4.46489
1360.48	5.50826
1360.75	10.6977
1361.02	2.42223
1361.29	3.46766
1361.56	2.4407
1361.83	2.44781
1362.1	10.7399
1362.37	4.53614
1362.65	6.61945
1362.92	6.63594
1363.19	6.65418
1363.46	3.5625
1363.73	13.9357
1364	8.76514
1364.27	10.8448
1364.54	6.70775
1364.81	9.81744
1365.08	3.60843
1365.35	6.71643
1365.62	10.8581
1365.89	6.72206
1366.16	13.9627
1366.43	6.72256
1366.7	13.9593
1366.97	17.0665
1367.24	10.878
1367.52	13.9958
1367.79	12.9764
1368.06	11.9569
1368.33	15.0726
1368.6	22.3247
1368.87	16.1365
1369.14	21.316
1369.41	15.1179
1369.68	17.1915
1369.95	16.16
1370.22	16.1621
1370.49	14.1
1370.76	15.1333
1371.03	15.1301
1371.3	16.1565
1371.57	13.0539
1371.84	21.3005
1372.11	18.2027
1372.38	21.2964
1372.65	18.2077
1372.92	21.3046
1373.19	24.4015
1373.46	20.286
1373.73	26.4754
1374	26.4828
1374.27	32.6711
1374.54	31.6452
1374.81	19.2941
1375.08	30.642
1375.35	32.7155
1375.62	32.7294
1375.89	28.6112
1376.16	35.8167
1376.43	30.6604
1376.7	44.0241
1376.97	48.1461
1377.24	50.2317
1377.51	39.9747
1377.78	58.5592
1378.05	57.591
1378.32	57.6295
1378.59	59.7061
1378.86	65.8935
1379.13	64.8609
1379.4	65.8861
1379.67	72.0502
1379.94	67.8654
1380.21	81.1991
1380.48	72.9253
1380.75	77.0601
1381.02	83.2298
1381.29	82.1668
1381.56	79.0386
1381.83	76.9455
1382.1	78.9706
1382.37	77.9104
1382.64	76.864
1382.91	77.8655
1383.18	68.6266
1383.45	72.7184
1383.72	69.6532
1383.99	75.8205
1384.26	67.6448
1384.53	69.7263
1384.8	70.8059
1385.07	70.8444
1385.34	76.0177
1385.61	82.199
1385.87	88.3982
1386.14	120.266
1386.41	173.697
1386.68	276.393
1386.95	362.959
1387.22	336.666
1387.49	202.285
1387.76	111.469
1388.03	76.8988
1388.3	59.611
1388.57	44.3235
1388.84	40.2205
1389.11	39.2261
1389.38	36.1446
1389.65	28.9321
1389.92	26.8339
1390.19	24.8163
1390.46	26.8438
1390.73	23.7705
1390.99	24.805
1391.26	21.7303
1391.53	14.5561
1391.8	21.7239
1392.07	18.6526
1392.34	12.5127
1392.61	20.707
1392.88	12.5232
1393.15	15.5996
1393.42	10.4889
1393.69	17.659
1393.96	10.5033
1394.23	10.5111
1394.5	12.5682
1394.76	14.6333
1395.03	9.53166
1395.3	9.54515
1395.57	11.6022
1395.84	14.6801
1396.11	4.45045
1396.38	5.47912
1396.65	6.50676
1396.92	8.55507
1397.19	6.51392
1397.46	8.56771
1397.73	11.6475
1397.99	12.6843
1398.26	9.62899
1398.53	6.57174
1398.8	8.6322
1399.07	10.6942
1399.34	6.61402
1399.61	9.69548
1399.88	8.68447
1400.14	4.60686
1400.41	4.62267
1400.68	10.7773
1400.95	8.74077
1401.22	9.77631
1401.49	6.72067
1401.76	12.8965
1402.03	5.75381
1402.3	4.75588
1402.57	6.83082
1402.83	4.79534
1403.1	8.91369
1403.37	5.83899
1403.64	8.91038
1403.91	10.967
1404.18	-0.309252
1404.45	6.87781
1404.72	5.85556
1404.99	5.85812
1405.25	2.78468
1405.52	7.91407
1405.79	8.94341
1406.06	3.8239
1406.33	4.85798
1406.6	12.0443
1406.87	15.1323
1407.13	8.9932
1407.4	7.97929
1407.67	10.0411
1407.94	17.2299
1408.21	16.2166
1408.48	18.2806
1408.75	20.3449
1409.01	14.2036
1409.28	12.1637
1409.55	9.09694
1409.82	3.97196
1410.09	6.02323
1410.36	6.02065
1410.62	4.99491
1410.89	2.94738
1411.16	2.95093
1411.43	7.05431
1411.7	3.99216
1411.97	1.95865
1412.23	3.00507
1412.5	6.12998
1412.77	3.0926
1413.04	6.17602
1413.31	3.04994
1413.58	4.07682
1413.84	6.15652
1414.11	2.08348
1414.38	0.0381336
1414.65	6.20728
1414.92	0.0557938
1415.19	5.19771
1415.45	0.074625
1415.72	-1.96824
1415.99	1.12355
1416.26	4.21589
1416.53	4.22807
1416.8	4.24015
1417.06	0.142666
1417.33	-0.874495
1417.6	2.21695
1417.87	-1.88496
1418.14	1.20848
1418.4	3.27108
1418.67	-1.85732
1418.94	2.25942
1419.21	1.23441
1419.48	-0.819048
1419.74	3.29197
1420.01	0.212568
1420.28	-0.813099
1420.55	1.24163
1420.82	2.27096
1421.08	3.30501
1421.35	3.31754
1421.62	3.33914
1421.89	1.3
1422.16	3.37819
1422.42	1.35003
1422.69	0.362747
1422.96	3.46266
1423.23	2.28216
1423.5	2.32909
1423.76	-0.768101
1424.03	0.240284
1424.3	1.29748
1424.57	4.37528
1424.83	4.4275
1425.1	1.32528
1425.37	0.328857
1425.64	0.333761
1425.91	-0.687771
1426.17	6.49013
1426.44	0.336525
1426.71	4.4346
1426.98	1.35667
1427.24	2.37419
1427.51	1.35088
1427.78	3.40236
1428.05	-0.686573
1428.32	3.41741
1428.58	3.42677
1428.85	0.364653
1429.12	2.42413
1429.38	-3.70984
1429.65	2.45176
1429.92	5.54164
1430.19	-1.62021
1430.46	0.448826
1430.72	0.468252
1430.99	1.50834
1431.26	6.64918
1431.53	5.62571
1431.79	-1.55854
1432.06	-2.58348
1432.33	-0.53091
1432.6	-1.56074
1432.86	-0.540449
1433.13	0.478123
1433.4	-1.57329
1433.67	0.47677
1433.93	2.53661
1434.2	1.53276
1434.47	-0.508762
1434.73	7.69595
1435	-0.496056
1435.27	0.533768
1435.54	1.56285
1435.8	0.54232
1436.07	2.59502
1436.34	1.57356
1436.6	6.69837
1436.87	-0.467464
1437.14	-2.51173
1437.41	5.68473
1437.67	-3.52619
1437.94	4.67684
1438.21	2.63805
1438.48	1.62128
1438.74	2.65295
1439.01	1.63774
1439.28	6.77394
1439.54	1.66352
1439.81	0.649822
1440.08	2.70895
1440.35	2.7157
1440.61	-2.40482
1440.88	0.676613
1441.15	-2.39778
1441.41	0.680138
1441.68	1.71383
1441.95	1.72218
1442.21	1.73197
1442.48	0.71183
1442.75	-2.36369
1443.02	-0.311943
1443.28	3.79062
1443.55	2.76877
1443.82	-1.32593
1444.08	3.81182
1444.35	2.79989
1444.62	-2.31441
1444.88	1.79636
1445.15	0.772776
1445.42	-0.250582
1445.69	-1.27369
1445.95	3.85756
1446.22	3.86006
1446.49	0.78598
1446.75	-0.237207
1447.02	4.89092
1447.28	-1.25937
1447.55	-0.230806
1447.82	1.82779
1448.09	-0.211361
1448.35	1.84819
1448.62	-3.2748
1448.89	-2.24597
1449.15	-3.26978
1449.42	-1.21831
1449.69	2.88221
1449.95	-0.191851
1450.22	-1.21456
1450.49	-0.187256
1450.75	2.88951
1451.02	2.89098
1451.29	-1.20638
1451.55	2.894
1451.82	-2.2261
1452.09	1.87634
1452.35	-2.21665
1452.62	1.889
1452.88	-2.20225
1453.15	1.90266
1453.42	2.93015
1453.68	0.882715
1453.95	-2.1876
1454.22	-2.18325
1454.48	-0.129915
1454.75	0.89699
1455.02	2.94897
1455.28	0.908638
1455.55	1.94163
1455.81	-0.103239
1456.08	-0.100498
1456.35	0.923988
1456.61	-4.20066
1456.88	-0.101032
1457.15	0.925352
1457.41	-1.12136
1457.68	0.931225
1457.95	-3.16224
1458.21	0.940718
1458.48	-0.0783081
1458.74	-2.12278
1459.01	-0.0686436
1459.28	1.98362
1459.54	-0.0635967
1459.81	-3.13532
1460.08	1.98825
1460.34	0.964657
1460.61	0.964327
1460.87	-4.15617
1461.14	4.03535
1461.41	-1.08529
1461.67	0.960482
1461.94	-1.08874
1462.2	3.00154
1462.47	0.951817
1462.74	0.948095
1463	-0.0782948
1463.27	1.96499
1463.54	-1.09431
1463.8	-2.09933
1464.07	0.983879
1464.33	3.04532
1464.6	4.08833
1464.86	2.99067
1465.13	2.96128
1465.4	1.92837
1465.66	-2.13883
1465.93	-3.15296
1466.19	2.96226
1466.46	-0.108231
1466.73	-3.15994
1466.99	2.96285
1467.26	3.9835
1467.52	0.924137
1467.79	-0.0936794
1468.05	-2.13139
1468.32	-0.0895271
1468.59	-3.14903
1468.85	3.98943
1469.12	0.928413
1469.38	-1.11499
1469.65	-1.11834
1469.92	-3.15803
1470.18	1.93626
1470.45	-1.12083
1470.71	-0.101349
1470.98	-2.14192
1471.24	3.96652
1471.51	3.96594
1471.77	0.912174
1472.04	-0.104486
1472.31	3.97006
1472.57	-1.11991
1472.84	-0.102707
1473.1	-0.105103
1473.37	-2.14198
1473.64	-1.12463
1473.9	-2.14083
1474.17	0.915785
1474.43	1.93902
1474.7	4.99545
1474.96	-3.14521
1475.23	4.99732
1475.49	-2.12804
1475.76	-2.1293
1476.02	-2.12928
1476.29	-2.13041
1476.55	0.918232
1476.82	-2.13442
1477.09	-1.11663
1477.35	0.918516
1477.62	-4.1658
1477.88	2.94889
1478.15	-0.104324
1478.41	2.94262
1478.68	1.92317
1478.94	-1.1287
1479.21	2.9309
1479.47	-0.120966
1479.74	0.88768
1480	0.879959
1480.27	-1.1548
1480.53	-1.15677
1480.8	0.870222
1481.07	-0.143084
1481.33	-1.15222
1481.6	-1.14576
1481.86	-2.15378
1482.12	2.92859
1482.39	5.97796
1482.65	-1.12541
1482.92	-2.13684
1483.19	0.911856
1483.45	-1.11808
1483.72	4.9675
1483.98	-2.15049
1484.25	-1.15827
1484.51	2.85879
1484.78	1.82286
1485.04	2.81292
1485.31	2.85212
1485.57	-5.22003
1485.84	1.88628
1486.1	-3.19564
1486.37	-0.156689
1486.63	-4.20025
1486.9	2.89023
1487.16	2.88326
1487.43	4.90462
1487.69	0.850138
1487.96	2.87033
1488.22	2.86399
1488.49	-1.18953
1488.75	4.87893
1489.02	-1.1938
1489.28	-3.2183
1489.54	-1.19466
1489.81	1.84122
1490.07	-2.20656
1490.34	1.83548
1490.6	-5.24831
1490.87	6.88246
1491.13	2.83705
1491.4	-2.21772
1491.66	0.817238
1491.93	0.8179
1492.19	-2.21561
1492.46	-3.22691
1492.72	2.83944
1492.99	-1.20497
1493.25	1.82685
1493.52	0.816545
1493.78	0.818634
1494.04	-2.21082
1494.31	0.823092
1494.57	-0.190325
1494.84	-0.196625
1495.1	-3.23681
1495.37	1.8054
1495.63	4.82861
1495.9	-1.23347
1496.16	4.82066
1496.43	-0.230577
1496.69	-1.24057
1496.96	1.78784
1497.22	-3.25936
1497.48	-2.25062
1497.75	-0.231777
1498.01	1.78759
1498.28	-3.25729
1498.54	0.781244
1498.81	2.80198
1499.07	2.80494
1499.33	1.79881
1499.6	3.82004
1499.86	-2.23686
1500.13	1.80086
1500.39	4.8291
1500.66	2.80853
1500.92	4.82077
1501.18	2.79942
1501.45	-2.24715
1501.71	2.79781
1501.98	2.79634
1502.24	-0.235783
1502.51	-2.25976
1502.77	3.78932
1503.03	0.757553
1503.3	-1.26099
1503.56	1.76683
1503.83	-1.25647
1504.09	-3.27259
1504.35	-0.24773
1504.62	3.78337
1504.88	1.76277
1505.15	-2.27509
1505.41	0.735741
1505.68	-3.29769
1505.94	1.73871
1506.2	-0.277267
1506.47	-0.271957
1506.73	-2.2861
1507	5.77689
1507.26	-1.27646
1507.52	1.74496
1507.79	1.74226
1508.05	0.734615
1508.32	1.74335
1508.58	2.75168
1508.84	1.74378
1509.11	3.75795
1509.37	-1.27926
1509.63	0.742449
1509.9	1.74425
1510.16	-0.276281
1510.43	-0.282871
1510.69	-2.30417
1510.95	-3.31992
1511.22	1.69799
1511.48	-0.3304
1511.75	1.66629
1512.01	2.65491
1512.27	0.637167
1512.54	1.634
1512.8	4.6391
1513.07	1.62208
1513.33	-1.38855
1513.59	-0.371071
1513.86	2.64862
1514.12	-0.367804
1514.38	1.63573
1514.65	0.621981
1514.91	3.62655
1515.17	-3.40816
1515.44	0.596455
1515.7	-4.42687
1515.96	0.584013
1516.23	-1.42429
1516.49	-4.43491
1516.76	-0.426046
1517.02	1.57873
1517.28	1.57957
1517.55	-3.43052
1517.81	-2.42535
1518.07	0.584694
1518.34	2.59216
1518.6	3.59711
1518.86	-0.413664
1519.13	4.6039
