#Acq. time (s)=	30
#Accumulations=	2
#Range (cm-¹)=	1200...2365
#Windows=	3
#Auto scanning=	Off
#Autofocus=	Off
#Macrospot=	Off
#AutoExposure=	Off
#Spike filter=	Multiple accum.
#Delay time (s)=	2
#Binning=	1
#Readout mode=	Signal
#DeNoise=	Off
#ICS correction=	On
#Dark correction=	Off
#Inst. Process=	Off
#Detector Gain=	Best Dynamic
#Detector ADC=	50 kHz HS
#Detector temperature (°C)=	-60.09
#Instrument=	LabRAM HR Evol
#Detector=	SIN-EM FIVIS
#Objective=	x100_VIS_LWD
#Grating=	1800 (450-850nm)
#ND Filter=	100%
#Laser=	532nm_Edge
#Hole=	100.021
#Temperature=	0
#Range=	Visible
#StageXY=	75x50mm Scan+
#StageZ=	Z motor
#X (µm)=	0
#Y (µm)=	0
#Z (µm)=	-10.9
#Full time(mm:ss)=	3:18
#Project=	21_11_26
#Sample=	BU19(2)w
#Site=	
#Title=	BU19(2)w-A-FF1-FI03-L_1800 (450-850nm)_532nm_Edge_100%_x100_VIS_LWD_H100um_30sX2
#Remark=	
#Date=	26.11.2021 12:23
#Acquired=	26.11.2021 12:23:13
#Base:Fit=	16.12.2021 16:00:56
#Base:Fit=	16.12.2021 16:05:25
#Base:Sub=	16.12.2021 16:05:26
1202.72	-11.865
1203	13.8688
1203.28	20.6366
1203.56	14.0719
1203.84	-19.6525
1204.11	12.704
1204.39	9.70166
1204.67	-9.80457
1204.95	32.077
1205.23	11.1085
1205.5	10.2653
1205.78	-1.36499
1206.06	-13.0729
1206.34	35.2971
1206.61	22.5038
1206.89	35.446
1207.17	-5.20679
1207.45	-11.4153
1207.73	21.1384
1208	18.3676
1208.28	10.371
1208.56	1.23816
1208.84	-3.76208
1209.11	-25.8322
1209.39	21.6331
1209.67	40.4348
1209.95	-28.3035
1210.23	1.23816
1210.5	39.1425
1210.78	8.29919
1211.06	1.0022
1211.34	-7.23572
1211.61	-18.7625
1211.89	-7.74951
1212.17	-9.70532
1212.45	-18.0305
1212.72	29.2441
1213	-4.51355
1213.28	-18.0295
1213.56	-9.0199
1213.83	-5.22229
1214.11	10.1488
1214.39	30.1851
1214.67	-3.02356
1214.94	-38.4012
1215.22	9.22986
1215.5	3.57788
1215.78	-7.41541
1216.05	3.89673
1216.33	21.3104
1216.61	-2.9364
1216.89	-42.1731
1217.16	31.3455
1217.44	-34.2433
1217.72	12.838
1218	22.722
1218.27	-19.3354
1218.55	29.9303
1218.83	4.90479
1219.1	-15.7213
1219.38	-22.4747
1219.66	11.0518
1219.94	32.8508
1220.21	3.64624
1220.49	37.2561
1220.77	-44.6884
1221.04	-48.2371
1221.32	-16.8597
1221.6	33.4701
1221.88	7.45276
1222.15	6.70422
1222.43	15.33
1222.71	4.77832
1222.98	-29.1178
1223.26	-6.87537
1223.54	28.0664
1223.81	-0.376831
1224.09	-9.67603
1224.37	22.2183
1224.65	17.3048
1224.92	-6.52087
1225.2	-18.637
1225.48	-3.14014
1225.76	-19.0707
1226.03	14.5906
1226.31	-0.275879
1226.59	28.9052
1226.86	21.1029
1227.14	6.77917
1227.42	-33.8981
1227.69	19.8521
1227.97	24.3223
1228.25	-25.4061
1228.52	9.18994
1228.8	0.000366211
1229.08	-13.08
1229.35	-9.3031
1229.63	8.0332
1229.91	-11.0071
1230.18	-22.2993
1230.46	12.7808
1230.74	15.0648
1231.01	-7.17932
1231.29	0
1231.57	9.15247
1231.84	12.2968
1232.12	13.0128
1232.4	34.7195
1232.67	25.8135
1232.95	-15.5055
1233.23	-14.8507
1233.5	4.64758
1233.78	-35.6172
1234.06	30.344
1234.33	-2.38306
1234.61	21.6364
1234.89	28.9232
1235.16	0.508179
1235.44	0.330444
1235.71	-8.23914
1235.99	-34.6356
1236.27	8.29272
1236.54	7.95496
1236.82	10.5968
1237.1	-29.9122
1237.37	0.957153
1237.65	6.40479
1237.93	-27.0424
1238.2	3.57312
1238.48	-27.7565
1238.76	-0.316284
1239.03	-23.0975
1239.31	11.9628
1239.58	-15.8328
1239.86	26.6665
1240.14	11.5686
1240.41	-27.5837
1240.69	-14.2799
1240.97	-8.26245
1241.24	8.27808
1241.52	23.7482
1241.79	-10.2596
1242.07	-41.261
1242.35	29.4991
1242.62	-6.41821
1242.9	16.4188
1243.18	-35.0271
1243.45	13.0861
1243.73	12.7448
1244	12.4419
1244.28	-11.8813
1244.56	-0.688965
1244.83	17.7543
1245.11	1.55042
1245.39	5.07068
1245.66	-1.94507
1245.94	-8.06165
1246.21	8.87842
1246.49	50.1985
1246.76	9.96851
1247.04	-12.3262
1247.32	16.6273
1247.59	37.0985
1247.87	23.1387
1248.14	11.1266
1248.42	22.75
1248.7	26.2903
1248.97	-18.0393
1249.25	26.7094
1249.52	50.5681
1249.8	8.2948
1250.08	19.4213
1250.35	24.3452
1250.63	35.1766
1250.9	-26.2096
1251.18	11.7795
1251.45	23.6708
1251.73	-14.556
1252.01	4.68665
1252.28	8.24048
1252.56	17.0135
1252.83	12.2042
1253.11	-15.6084
1253.39	27.5885
1253.66	5.18567
1253.94	10.0856
1254.21	34.0259
1254.49	15.2242
1254.76	5.85718
1255.04	-15.2115
1255.31	46.0682
1255.59	-0.0749512
1255.87	44.5
1256.14	-9.16431
1256.42	17.7349
1256.69	53.0457
1256.97	-18.0615
1257.24	22.4265
1257.52	37.681
1257.79	37.1144
1258.07	61.6992
1258.35	39.3136
1258.62	56.5944
1258.9	48.7692
1259.17	71.0052
1259.45	53.9353
1259.72	42.321
1260	41.1967
1260.27	76.0258
1260.55	68.9906
1260.82	104.788
1261.1	99.6554
1261.37	82.2098
1261.65	74.3008
1261.92	122.202
1262.2	144.323
1262.48	160.967
1262.75	153.402
1263.02	173.118
1263.3	186.254
1263.58	197.6
1263.85	152.102
1264.13	178.217
1264.4	128.37
1264.68	148.804
1264.95	68.9471
1265.23	75.5122
1265.5	91.9019
1265.78	78.8832
1266.05	39.5812
1266.33	82.0814
1266.6	31.7191
1266.88	62.9694
1267.15	47.2804
1267.43	61.9811
1267.7	53.745
1267.98	69.6027
1268.25	22.7474
1268.53	60.851
1268.8	31.8187
1269.08	28.6768
1269.35	70.5287
1269.63	59.9381
1269.9	66.8406
1270.18	28.4254
1270.45	35.9615
1270.73	13.2872
1271	29.3064
1271.28	15.0829
1271.55	71.1511
1271.83	31.881
1272.1	59.9324
1272.38	49.5341
1272.65	60.1582
1272.93	22.7819
1273.2	-5.39661
1273.47	50.2489
1273.75	50.3777
1274.03	53.6433
1274.3	32.7953
1274.57	35.8929
1274.85	65.0153
1275.12	15.3207
1275.4	42.2715
1275.67	58.9182
1275.95	33.691
1276.22	102.921
1276.5	82.0264
1276.77	78.8669
1277.05	91.4766
1277.32	90.3474
1277.6	94.6532
1277.87	91.6035
1278.14	31.7911
1278.42	64.3888
1278.69	118.006
1278.97	123.447
1279.24	110.791
1279.52	150.732
1279.79	173.449
1280.07	186.652
1280.34	237.642
1280.61	256.177
1280.89	367.492
1281.16	496.743
1281.44	666.357
1281.71	833.053
1281.99	1217.28
1282.26	1662.14
1282.53	2210.59
1282.81	2749.76
1283.08	3128.71
1283.36	3227.04
1283.63	3029.02
1283.91	2662.34
1284.18	2151.23
1284.45	1667.21
1284.73	1167.03
1285	834.236
1285.28	625.236
1285.55	432.119
1285.83	345.797
1286.1	262.34
1286.37	212.945
1286.65	190.492
1286.92	124.548
1287.2	103.145
1287.47	97.4531
1287.75	103.191
1288.02	115.188
1288.29	66.2699
1288.57	118.549
1288.84	103.548
1289.12	73.8868
1289.39	88.5681
1289.66	47.5044
1289.94	43.2935
1290.21	103.367
1290.49	58.0614
1290.76	81.9641
1291.03	81.4579
1291.31	19.9546
1291.58	60.6893
1291.86	27.7039
1292.13	70.5056
1292.4	16.4917
1292.68	54.2041
1292.95	5.34094
1293.22	61.7642
1293.5	15.1974
1293.77	5.95361
1294.05	66.4078
1294.32	24.6603
1294.59	30.8713
1294.87	20.019
1295.14	13.2593
1295.42	57.5477
1295.69	40.0299
1295.96	65.9937
1296.24	15.162
1296.51	20.8386
1296.79	-5.71985
1297.06	4.58484
1297.33	55.8817
1297.61	6.66003
1297.88	-19.3481
1298.15	38.0577
1298.43	39.4086
1298.7	18.1777
1298.97	64.2006
1299.25	53.0426
1299.52	14.4924
1299.79	-2.97656
1300.07	9.36206
1300.34	7.24121
1300.62	29.2787
1300.89	30.0763
1301.16	15.962
1301.44	37.7646
1301.71	47.045
1301.98	14.2952
1302.25	41.7169
1302.53	18.3196
1302.8	14.896
1303.08	11.3977
1303.35	4.64624
1303.62	11.5503
1303.9	-5.95605
1304.17	26.4142
1304.44	58.8817
1304.72	35.3527
1304.99	18.1329
1305.26	2.83862
1305.54	-7.26147
1305.81	2.60718
1306.08	36.7478
1306.35	-14.6091
1306.63	15.3431
1306.9	13.8372
1307.18	10.365
1307.45	16.5439
1307.72	56.375
1308	8.58594
1308.27	-3.32776
1308.54	2.79077
1308.81	13.9927
1309.09	-11.5271
1309.36	5.31628
1309.63	5.25867
1309.91	12.5946
1310.18	5.06763
1310.45	-31.1552
1310.73	25.4265
1311	28.2952
1311.27	3.80103
1311.55	19.4246
1311.82	12.8754
1312.09	19.0531
1312.37	-6.28491
1312.64	-9.49963
1312.91	14.6093
1313.18	6.84729
1313.46	-33.8328
1313.73	25.9902
1314	-9.29565
1314.28	-16.0446
1314.55	-0.506958
1314.82	15.1327
1315.09	28.7355
1315.37	8.599
1315.64	-18.9454
1315.91	9.49939
1316.18	15.7698
1316.46	11.1819
1316.73	-2.94861
1317	5.13818
1317.28	26.9789
1317.55	-17.6694
1317.82	24.5315
1318.09	1.17236
1318.37	7.3291
1318.64	-0.284546
1318.91	13.2014
1319.18	-6.09546
1319.46	11.5259
1319.73	11.1703
1320	1.31445
1320.28	-19.988
1320.55	-12.8577
1320.82	-37.5328
1321.09	33.7662
1321.37	24.6426
1321.64	8.0332
1321.91	-2.28992
1322.18	-8.1593
1322.46	6.90125
1322.73	-2.05237
1323	-7.84546
1323.27	-29.4719
1323.55	3.65857
1323.82	-9.07898
1324.09	7.58508
1324.36	37.9097
1324.64	0.670288
1324.91	-19.6183
1325.18	-23.111
1325.45	3.07629
1325.73	3.41199
1326	-12.3901
1326.27	26.3762
1326.54	-7.76257
1326.81	-8.53943
1327.09	-7.89526
1327.36	-6.55408
1327.63	-16.2402
1327.9	12.5226
1328.18	1.25916
1328.45	9.02454
1328.72	-6.3999
1328.99	1.24768
1329.27	27.5105
1329.54	-1.46399
1329.81	13.2126
1330.08	-19.8414
1330.35	-6.54236
1330.63	15.1128
1330.9	-11.8429
1331.17	8.56641
1331.44	17.2656
1331.71	-26.8798
1331.99	-22.6234
1332.26	-6.63464
1332.53	19.9835
1332.8	-22.9022
1333.07	24.6293
1333.35	-14.1171
1333.62	2.9259
1333.89	16.845
1334.16	18.1804
1334.43	14.2788
1334.71	-15.8489
1334.98	28.6058
1335.25	31.1193
1335.52	3.23047
1335.79	14.1783
1336.07	-2.12769
1336.34	32.973
1336.61	38.7363
1336.88	-28.8691
1337.15	10.5055
1337.43	28.9435
1337.7	-2.91516
1337.97	14.4474
1338.24	-14.5389
1338.51	7.84802
1338.78	-27.2329
1339.06	-16.2593
1339.33	-2.04834
1339.6	-0.269165
1339.87	1.62634
1340.14	10.884
1340.42	-4.005
1340.69	-4.20166
1340.96	1.87646
1341.23	29.8564
1341.5	-10.2775
1341.77	17.6127
1342.04	21.3463
1342.32	17.6659
1342.59	17.0283
1342.86	20.4928
1343.13	10.3623
1343.4	11.9545
1343.67	16.7936
1343.95	21.7059
1344.22	-1.57581
1344.49	0.290527
1344.76	-20.8835
1345.03	9.03076
1345.3	4.3075
1345.58	8.88635
1345.85	-18.0431
1346.12	39.7776
1346.39	2.36804
1346.66	-0.835083
1346.93	8.79358
1347.2	27.8401
1347.47	10.3522
1347.75	-28.9624
1348.02	-9.72095
1348.29	-20.6172
1348.56	-1.21667
1348.83	-19.3121
1349.1	6.21851
1349.37	0.432495
1349.65	-5.36584
1349.92	7.60547
1350.19	27.8655
1350.46	6.4834
1350.73	-21.1481
1351	1.07739
1351.27	0.389648
1351.54	-21.9867
1351.81	-1.87537
1352.09	39.3379
1352.36	-35.8079
1352.63	-11.9393
1352.9	-22.217
1353.17	22.7998
1353.44	-8.38733
1353.71	-1.96301
1353.98	-24.575
1354.25	-3.51318
1354.53	-5.30994
1354.8	-12.5209
1355.07	-3.22266
1355.34	7.06848
1355.61	-19.7543
1355.88	17.0782
1356.15	-4.38818
1356.42	0.70105
1356.69	29.1716
1356.96	22.5234
1357.24	-27.7236
1357.51	9.2522
1357.78	7.74524
1358.05	31.1116
1358.32	3.57727
1358.59	16.5139
1358.86	14.9395
1359.13	-12.6307
1359.4	-14.2402
1359.67	20.5354
1359.94	40.8115
1360.22	7.97522
1360.49	-19.7269
1360.76	5.45874
1361.03	4.89392
1361.3	23.1626
1361.57	33.2568
1361.84	35.0245
1362.11	2.5791
1362.38	14.5634
1362.65	34.8533
1362.92	36.5154
1363.19	50.7148
1363.46	35.0612
1363.73	39.2758
1364	52.7305
1364.28	53.7572
1364.55	37.9661
1364.82	28.2927
1365.09	67.2286
1365.36	7.64905
1365.63	13.24
1365.9	36.3971
1366.17	15.0667
1366.44	53.7559
1366.71	15.869
1366.98	26.504
1367.25	46.3365
1367.52	25.1573
1367.79	17.5214
1368.06	38.1957
1368.33	70.1486
1368.6	19.3798
1368.87	97.8284
1369.15	147.335
1369.41	188.625
1369.68	211.28
1369.95	171.531
1370.23	77.015
1370.5	53.8405
1370.77	32.48
1371.04	75.42
1371.31	88.2899
1371.58	54.5054
1371.85	44.3921
1372.12	41.3953
1372.39	52.8678
1372.66	47.8906
1372.93	66.7827
1373.2	63.1584
1373.47	36.9277
1373.74	28.2401
1374.01	63.9012
1374.28	76.9218
1374.55	43.6011
1374.82	73.1404
1375.09	66.5969
1375.36	48.6371
1375.63	88.6655
1375.9	78.375
1376.17	82.2327
1376.44	62.5444
1376.71	62.8922
1376.98	56.0516
1377.25	111.853
1377.52	66.6171
1377.79	63.5417
1378.06	26.7329
1378.33	74.593
1378.6	100.008
1378.87	80.1997
1379.14	136.999
1379.41	113.002
1379.68	116.665
1379.95	102.784
1380.22	119.705
1380.49	88.8153
1380.76	104.612
1381.03	138.519
1381.3	153.024
1381.57	134.616
1381.84	151.395
1382.11	157.491
1382.38	141.945
1382.65	203.577
1382.92	165.702
1383.19	161.676
1383.46	258.38
1383.73	259.632
1384	258.042
1384.27	331.362
1384.54	394.789
1384.81	446.035
1385.08	566.215
1385.34	700.004
1385.61	917.289
1385.88	1303.75
1386.15	1922.3
1386.42	2908.36
1386.69	4315.15
1386.96	6026.77
1387.23	7319.62
1387.5	7295.8
1387.77	5843.05
1388.04	3939.15
1388.31	2577.36
1388.58	1598.91
1388.85	1085.36
1389.12	780.805
1389.39	621.004
1389.66	447.467
1389.93	366.4
1390.2	350.084
1390.46	279.511
1390.73	217.04
1391	200.363
1391.27	202.437
1391.54	143.651
1391.81	174.019
1392.08	151.862
1392.35	154.241
1392.62	112.652
1392.89	116.23
1393.16	110.653
1393.43	46.7771
1393.7	96.5485
1393.97	70.5935
1394.23	32.3837
1394.5	74.0151
1394.77	100.308
1395.04	32.5083
1395.31	102.09
1395.58	96.0653
1395.85	98.1414
1396.12	62.2078
1396.39	71.1677
1396.66	94.3622
1396.93	84.7361
1397.2	77.1415
1397.46	56.1405
1397.73	86.297
1398	80.8129
1398.27	83.6708
1398.54	60.0769
1398.81	54.9858
1399.08	69.2471
1399.35	75.291
1399.62	47.7836
1399.89	58.0271
1400.16	56.9882
1400.42	49.6155
1400.69	88.5818
1400.96	91.9323
1401.23	86.8433
1401.5	56.8905
1401.77	67.1626
1402.04	38.286
1402.31	89.9344
1402.58	51.8479
1402.84	62.0094
1403.11	80.0775
1403.38	41.4757
1403.65	94.9541
1403.92	39.3475
1404.19	36.739
1404.46	73.4919
1404.73	106.412
1404.99	65.0253
1405.26	52.3129
1405.53	118.476
1405.8	104.608
1406.07	128.7
1406.34	112.836
1406.61	149.354
1406.87	137.746
1407.14	169.427
1407.41	175.535
1407.68	216.528
1407.95	240.046
1408.22	265.618
1408.49	319.897
1408.76	332.145
1409.02	309.562
1409.29	314.701
1409.56	263.412
1409.83	250.059
1410.1	212.04
1410.37	162.627
1410.63	158.992
1410.9	96.76
1411.17	84.7251
1411.44	69.7705
1411.71	87.7178
1411.98	59.6355
1412.25	66.5647
1412.51	80.994
1412.78	69.0525
1413.05	70.0339
1413.32	45.3711
1413.59	79.1858
1413.86	15.9901
1414.12	38.0576
1414.39	49.5691
1414.66	12.6486
1414.93	40.0048
1415.2	41.7645
1415.47	22.1516
1415.73	21.9869
1416	30.0831
1416.27	13.6317
1416.54	15.6785
1416.81	21.8455
1417.07	72.1924
1417.34	28.0706
1417.61	32.226
1417.88	-2.68445
1418.15	26.0193
1418.42	32.0502
1418.68	32.9855
1418.95	22.6257
1419.22	44.0631
1419.49	28.5145
1419.76	11.7115
1420.02	60.5245
1420.29	11.7098
1420.56	17.3699
1420.83	-1.64685
1421.1	40.9185
1421.36	26.0457
1421.63	54.4542
1421.9	33.8672
1422.17	19.8115
1422.44	-0.289673
1422.7	41.2424
1422.97	8.13611
1423.24	45.5162
1423.51	32.5499
1423.77	33.2335
1424.04	40.5464
1424.31	34.7225
1424.58	15.3887
1424.85	30.6073
1425.11	8.41956
1425.38	46.4175
1425.65	38.2855
1425.92	30.6862
1426.19	-2.70325
1426.45	49.3199
1426.72	34.4734
1426.99	12.3098
1427.26	18.8275
1427.52	38.6364
1427.79	19.2896
1428.06	46.187
1428.33	11.9395
1428.59	13.7109
1428.86	8.45703
1429.13	-15.1501
1429.4	16.5841
1429.67	-16.1421
1429.93	4.46021
1430.2	4.68494
1430.47	16.2764
1430.74	14.4512
1431	1.51025
1431.27	1.11316
1431.54	16.9624
1431.81	22.2461
1432.07	4.64636
1432.34	34.9441
1432.61	-6.68262
1432.87	7.25208
1433.14	-37.5493
1433.41	26.2212
1433.68	-23.8911
1433.95	-7.33398
1434.21	15.627
1434.48	0.952637
1434.75	-38.326
1435.01	3.89697
1435.28	-45.3724
1435.55	-35.2704
1435.82	-10.873
1436.08	-17.2612
1436.35	21.4078
1436.62	17.03
1436.89	14.6566
1437.15	19.4484
1437.42	10.9432
1437.69	31.2222
1437.95	-21.3668
1438.22	7.06409
1438.49	0.85437
1438.76	3.02441
1439.02	20.4517
1439.29	21.3785
1439.56	-10.4386
1439.82	16.3279
1440.09	-5.96362
1440.36	-39.4473
1440.63	-12.7211
1440.89	-54.8088
1441.16	-7.76306
1441.43	11.6702
1441.69	-21.4335
1441.96	-52.641
1442.23	-12.9622
1442.49	7.75977
1442.76	38.4169
1443.03	6.83667
1443.3	10.5588
1443.56	18.2996
1443.83	11.7378
1444.1	0.12915
1444.36	18.3628
1444.63	35.7509
1444.9	4.33716
1445.16	24.114
1445.43	-0.0791016
1445.7	-18.8484
1445.97	-2.75256
1446.23	18.4866
1446.5	18.1816
1446.77	17.8945
1447.03	-14.1895
1447.3	34.7448
1447.57	-49.6747
1447.83	-4.93347
1448.1	-1.16284
1448.37	21.2289
1448.63	-26.7965
1448.9	5.24622
1449.17	-19.4087
1449.43	23.4955
1449.7	14.9851
1449.97	-3.85706
1450.23	4.92761
1450.5	21.9105
1450.77	2.13
1451.03	17.2128
1451.3	51.766
1451.57	13.5414
1451.83	-23.6797
1452.1	11.8584
1452.37	14.6444
1452.63	-32.7085
1452.9	-0.0473633
1453.17	-14.453
1453.43	-13.3732
1453.7	-5.15247
1453.97	-39.1051
1454.23	22.1095
1454.5	-15.0278
1454.77	-13.1289
1455.03	22.5923
1455.3	33.6633
1455.56	9.82751
1455.83	25.0879
1456.1	-30.0853
1456.36	15.0323
1456.63	-0.492065
1456.9	-3.86523
1457.16	34.6206
1457.43	7.54211
1457.7	2.13403
1457.96	13.1385
1458.23	-15.7648
1458.49	-28.1938
1458.76	-10.8827
1459.03	14.6841
1459.29	-21.2357
1459.56	-13.1245
1459.82	17.5054
1460.09	-33.9385
1460.36	9.85437
1460.62	20.8468
1460.89	19.5225
1461.16	22.2516
1461.42	30.0613
1461.69	-22.5454
1461.95	18.0049
1462.22	5.26904
1462.49	14.0034
1462.75	-28.4648
1463.02	16.0172
1463.28	19.5438
1463.55	3.6217
1463.82	-22.4668
1464.08	-0.183716
1464.35	5.34705
1464.61	-24.6578
1464.88	-3.69678
1465.15	1.09705
1465.41	-5.55005
1465.68	20.6559
1465.94	-35.073
1466.21	-44.5779
1466.48	3.79675
1466.74	18.7905
1467.01	32.1263
1467.27	-12.1318
1467.54	4.2196
1467.8	-4.20325
1468.07	-12.6414
1468.34	26.9164
1468.6	0.216187
1468.87	12.2699
1469.13	31.3983
1469.4	-3.60632
1469.67	9.2843
1469.93	-44.2274
1470.2	32.6803
1470.46	-7.5614
1470.73	29.749
1470.99	-23.5944
1471.26	8.73071
1471.53	-14.0759
1471.79	-11.5203
1472.06	-14.9681
1472.32	-14.2244
1472.59	19.1638
1472.85	30.1681
1473.12	-23.9978
1473.39	-28.3511
1473.65	-25.7028
1473.92	3.40271
1474.18	19.3217
1474.45	8.86816
1474.71	33.1406
1474.98	11.7882
1475.24	-36.0736
1475.51	4.51721
1475.78	-2.80994
1476.04	13.1638
1476.31	16.8436
1476.57	-8.91748
1476.84	-1.08105
1477.1	-17.791
1477.37	14.3157
1477.63	-35.8151
1477.9	-25.8544
1478.16	27.8524
1478.43	15.2928
1478.69	12.7578
1478.96	-31.3634
1479.22	-3.31445
1479.49	32.8143
1479.76	-39.8134
1480.02	20.6042
1480.29	-17.5028
1480.55	15.2103
1480.82	34.8358
1481.08	2.87048
1481.35	9.66113
1481.61	30.5088
1481.88	5.16882
1482.14	2.27039
1482.41	-16.8267
1482.67	15.8826
1482.94	4.85608
1483.2	-7.47827
1483.47	0.721436
1483.73	16.9443
1484	10.7117
1484.26	22.6912
1484.53	17.7451
1484.79	-10.811
1485.06	20.5608
1485.32	11.8655
1485.59	-27.6047
1485.85	17.3676
1486.12	-8.92822
1486.38	23.8672
1486.65	25.433
1486.91	-6.02856
1487.18	-4.23608
1487.44	-35.5206
1487.71	7.37146
1487.97	16.9368
1488.24	-2.70569
1488.5	7.9928
1488.77	-4.70117
1489.03	31.1517
1489.3	-8.80334
1489.56	4.00525
1489.83	-17.5424
1490.09	18.6091
1490.36	11.3693
1490.62	23.3372
1490.89	-42.7791
1491.15	40.663
1491.42	1.72925
1491.68	19.6099
1491.95	6.2395
1492.21	38.4406
1492.48	30.2892
1492.74	19.9728
1493	23.7764
1493.27	41.766
1493.53	-28.1362
1493.8	18.0923
1494.06	-22.5554
1494.33	1.58313
1494.59	14.701
1494.86	28.8647
1495.12	15.5063
1495.39	47.4127
1495.65	26.5104
1495.92	-4.60413
1496.18	-9.31165
1496.45	-1.71057
1496.71	25.1552
1496.97	16.7065
1497.24	33.4681
1497.5	-10.092
1497.77	-5.20667
1498.03	27.8485
1498.3	18.5795
1498.56	37.6255
1498.82	28.4385
1499.09	26.3378
1499.35	68.6644
1499.62	14.1366
1499.88	4.06165
1500.15	46.4747
1500.41	39.3308
1500.68	30.0854
1500.94	38.9641
1501.2	-4.64661
1501.47	28.3246
1501.73	32.8676
1502	9.39661
1502.26	2.13342
1502.52	19.0735
1502.79	33.8882
1503.05	31.3308
1503.32	24.7679
1503.58	19.364
1503.85	48.1299
1504.11	3.61243
1504.37	-8.45825
1504.64	63.0795
1504.9	32.6971
1505.17	8.26611
1505.43	27.0892
1505.7	35.7352
1505.96	23.9819
1506.22	31.2399
1506.49	26.9377
1506.75	12.6322
1507.02	9.54492
1507.28	20.751
1507.54	16.6482
1507.81	15.5787
1508.07	18.4414
1508.34	-6.0105
1508.6	34.049
1508.86	3.71228
1509.13	29.8352
1509.39	45.8411
1509.66	-7.73511
1509.92	19.3191
1510.18	42.558
1510.45	-2.81628
1510.71	65.2091
1510.98	34.4747
1511.24	34.9076
1511.5	31.2222
1511.77	9.19067
1512.03	37.2581
1512.29	9.99609
1512.56	-13.1655
1512.82	24.099
1513.08	1.37866
1513.35	-33.3248
1513.61	24.4103
1513.88	-19.0488
1514.14	15.3688
1514.4	42.0537
1514.67	18.99
1514.93	6.58105
1515.2	-6.03259
1515.46	15.4231
1515.72	-0.246216
1515.99	-6.96667
1516.25	5.38513
1516.51	-0.161133
1516.78	-9.51111
1517.04	13.2622
1517.3	30.0404
1517.57	22.8274
1517.83	14.6954
1518.09	-13.3911
1518.36	3.84497
1518.62	65.9836
1518.88	16.8279
1519.15	42.8727
1519.41	33.8666
1519.67	67.98
1519.94	-5.3114
1520.2	20.5894
1520.47	16.2634
1520.73	55.1105
1520.99	16.9565
1521.26	42.078
1521.52	44.1111
1521.78	-6.13757
1522.05	-3.3457
1522.31	29.4557
1522.57	13.0526
1522.84	30.7413
1523.1	12.3511
1523.36	-12.1665
1523.62	8.1958
1523.89	10.3254
1524.15	33.7344
