#Acq. time (s)=	30
#Accumulations=	2
#Range (cm-¹)=	1200...2365
#Windows=	3
#Auto scanning=	Off
#Autofocus=	Off
#Macrospot=	Off
#AutoExposure=	Off
#Spike filter=	Multiple accum.
#Delay time (s)=	2
#Binning=	1
#Readout mode=	Signal
#DeNoise=	Off
#ICS correction=	On
#Dark correction=	Off
#Inst. Process=	Off
#Detector Gain=	Best Dynamic
#Detector ADC=	50 kHz HS
#Detector temperature (°C)=	-60.09
#Instrument=	LabRAM HR Evol
#Detector=	SIN-EM FIVIS
#Objective=	x100_VIS_LWD
#Grating=	1800 (450-850nm)
#ND Filter=	100%
#Laser=	532nm_Edge
#Hole=	49.98
#Temperature=	0
#Range=	Visible
#StageXY=	75x50mm Scan+
#StageZ=	Z motor
#X (µm)=	0
#Y (µm)=	0
#Z (µm)=	64.1
#Full time(mm:ss)=	3:19
#Project=	21_11_22
#Sample=	BU19w
#Site=	
#Title=	BU19w-D-FF2-FI10-V_1800 (450-850nm)_532nm_Edge_100%_x100_VIS_LWD_H50um_30sX2
#Remark=	
#Date=	22.11.2021 13:57
#Acquired=	22.11.2021 13:57:50
#Base:Fit=	16.12.2021 17:39:50
#Base:Fit=	16.12.2021 17:41:01
#Base:Sub=	16.12.2021 17:41:02
1202.84	3.62702
1203.12	3.63131
1203.4	-0.653976
1203.67	-0.647083
1203.95	2.57444
1204.23	0.441147
1204.51	-4.896
1204.78	-1.66354
1205.06	-6.99276
1205.34	2.66253
1205.62	6.9576
1205.9	2.6934
1206.17	4.84881
1206.45	-3.68163
1206.73	3.83174
1207.01	2.78966
1207.29	0.672619
1207.56	1.75026
1207.84	-1.44644
1208.12	-1.43383
1208.39	-0.355946
1208.67	-1.40967
1208.95	-3.53332
1209.23	-4.58958
1209.51	2.8865
1209.78	3.96518
1210.06	-1.34866
1210.34	2.92933
1210.62	-2.37276
1210.89	5.09798
1211.17	-2.32344
1211.45	5.16093
1211.72	-0.131741
1212	-3.29626
1212.28	-1.1396
1212.56	1.01606
1212.84	1.04173
1213.11	-1.07164
1213.39	1.06598
1213.67	2.13305
1213.94	1.07442
1214.22	2.14767
1214.5	-4.21465
1214.78	6.41845
1215.05	4.30835
1215.33	1.13849
1215.61	-5.21424
1215.89	-0.948116
1216.16	7.56511
1216.44	-5.14534
1216.72	-1.94033
1216.99	3.37983
1217.27	-1.89853
1217.55	-0.809483
1217.83	0.27536
1218.1	3.47972
1218.38	2.43543
1218.66	0.332653
1218.93	1.40408
1219.21	-1.76917
1219.49	0.351192
1219.77	1.40836
1220.04	-4.94061
1220.32	0.350674
1220.6	-2.81861
1220.88	-7.03661
1221.15	-0.690548
1221.43	-3.84648
1221.71	1.44889
1221.98	1.46641
1222.26	0.434769
1222.54	-0.589443
1222.81	0.499405
1223.09	-1.57942
1223.37	-2.61068
1223.64	1.63464
1223.92	3.76206
1224.2	3.77742
1224.48	6.94059
1224.75	-0.468117
1225.03	0.574318
1225.31	3.72572
1225.58	3.69802
1225.86	0.523762
1226.14	-2.61275
1226.41	0.684479
1226.69	4.00151
1226.97	0.828175
1227.24	6.06758
1227.52	2.90627
1227.8	9.25756
1228.07	12.4146
1228.35	4.94516
1228.63	11.2799
1228.9	14.4569
1229.18	10.2773
1229.46	8.19238
1229.73	13.4693
1230.01	19.7944
1230.29	16.6599
1230.56	18.783
1230.84	12.5086
1231.12	16.742
1231.39	25.1791
1231.67	27.3167
1231.95	24.2034
1232.22	33.6945
1232.5	29.5222
1232.78	30.609
1233.05	34.8475
1233.33	32.7694
1233.61	31.7324
1233.88	36.9993
1234.16	37.0059
1234.43	32.7976
1234.71	29.6402
1234.99	31.7344
1235.26	32.7774
1235.54	27.5246
1235.82	21.2321
1236.09	25.4373
1236.37	24.4022
1236.65	25.4664
1236.92	15.0029
1237.2	15.025
1237.47	14.0007
1237.75	12.9787
1238.03	10.91
1238.3	15.1305
1238.58	3.61998
1238.85	9.92198
1239.13	7.8424
1239.41	3.67504
1239.68	13.1355
1239.96	11.0714
1240.24	6.91331
1240.51	3.79301
1240.79	6.96169
1241.06	13.2801
1241.34	8.06342
1241.62	7.03551
1241.89	8.10267
1242.17	3.92309
1242.45	3.93269
1242.72	10.2224
1243	8.13045
1243.27	6.05062
1243.55	10.2575
1243.83	8.18773
1244.1	-0.161873
1244.38	10.3248
1244.65	8.25391
1244.93	9.31946
1245.2	11.4154
1245.48	8.28653
1245.76	10.3991
1246.03	9.38071
1246.31	15.686
1246.59	14.6616
1246.86	14.683
1247.14	15.754
1247.41	11.5839
1247.69	18.9096
1247.96	15.782
1248.24	19.9727
1248.51	26.2531
1248.79	23.1301
1249.07	22.0965
1249.34	20.0188
1249.62	24.206
1249.89	23.1707
1250.17	21.0933
1250.45	20.0663
1250.72	21.1339
1251	28.4747
1251.27	28.5145
1251.55	29.6008
1251.82	24.4135
1252.1	24.4391
1252.38	26.5581
1252.65	24.4951
1252.93	23.4721
1253.2	24.544
1253.48	27.7076
1253.75	23.5667
1254.03	18.3735
1254.3	21.5294
1254.58	24.6767
1254.86	21.5618
1255.13	16.3602
1255.41	16.3795
1255.68	14.3104
1255.96	11.1867
1256.23	20.6018
1256.51	14.3734
1256.78	15.4476
1257.06	14.4642
1257.33	13.4273
1257.61	13.4381
1257.88	7.17721
1258.16	10.3171
1258.44	6.15923
1258.71	14.5307
1258.99	5.21714
1259.26	14.721
1259.54	6.44903
1259.81	9.50634
1260.09	11.5444
1260.36	8.39355
1260.64	11.6118
1260.91	6.46473
1261.19	10.7226
1261.46	9.75103
1261.74	7.64322
1262.01	4.51603
1262.29	9.76653
1262.56	9.7895
1262.84	5.62245
1263.11	16.0958
1263.39	10.9013
1263.66	13.025
1263.94	14.1079
1264.21	9.96686
1264.49	15.2381
1264.76	10.0529
1265.04	13.238
1265.31	9.10434
1265.59	0.776451
1265.86	6.05056
1266.14	8.18148
1266.41	13.4542
1266.69	3.00108
1266.96	3.01543
1267.24	10.3559
1267.51	6.17973
1267.79	10.3793
1268.06	6.20765
1268.34	8.32214
1268.61	7.29475
1268.89	7.3233
1269.16	14.6886
1269.44	4.2644
1269.71	9.54758
1269.99	6.44835
1270.26	14.8728
1270.54	7.57976
1270.81	7.62181
1271.09	6.61533
1271.36	7.70086
1271.64	6.68211
1271.91	9.85366
1272.18	13.0266
1272.46	6.76539
1272.74	4.70283
1273.01	8.93645
1273.28	3.72915
1273.56	9.01533
1273.83	11.1535
1274.11	13.2895
1274.38	10.18
1274.66	8.12052
1274.93	8.16168
1275.21	6.09808
1275.48	12.4432
1275.76	8.28214
1276.03	10.4222
1276.3	8.35681
1276.58	4.17282
1276.85	15.7664
1277.13	12.6296
1277.4	12.6529
1277.68	8.47797
1277.95	8.50923
1278.23	10.6547
1278.5	12.8071
1278.77	7.58141
1279.05	8.65904
1279.32	11.8489
1279.6	12.9383
1279.87	10.8513
1280.15	8.74849
1280.42	9.7718
1280.69	10.8228
1280.97	8.75056
1281.24	20.3468
1281.52	12.1159
1281.79	6.88584
1282.07	24.831
1282.34	24.8216
1282.61	35.3481
1282.89	50.1132
1283.16	76.4904
1283.44	110.224
1283.71	143.908
1283.99	190.26
1284.26	179.747
1284.53	128.162
1284.81	92.3729
1285.08	43.9741
1285.36	26.11
1285.63	16.6681
1285.9	18.8047
1286.18	9.36864
1286.45	9.40701
1286.73	13.6573
1287	2.1129
1287.28	6.3639
1287.55	4.28609
1287.82	11.6808
1288.1	2.22537
1288.37	6.46516
1288.64	4.38581
1288.92	8.62463
1289.19	3.38609
1289.47	1.31086
1289.74	-3.92916
1290.01	2.41322
1290.29	-0.716747
1290.56	0.37854
1290.84	2.53513
1291.11	2.58487
1291.38	-6.86887
1291.66	-1.56875
1291.93	-0.488804
1292.21	-2.56391
1292.48	4.86816
1292.75	-0.352848
1293.03	0.765068
1293.3	0.817081
1293.57	6.13646
1293.85	2.99511
1294.12	-0.152313
1294.4	-4.35957
1294.67	4.11172
1294.94	4.12774
1295.22	7.31015
1295.49	5.2292
1295.76	-2.13688
1296.04	1.05109
1296.31	0.0164375
1296.58	4.25911
1296.86	0.0633354
1297.13	2.21035
1297.4	2.24453
1297.68	-5.11683
1297.95	0.188763
1298.22	1.27083
1298.5	3.41248
1298.77	3.44881
1299.04	6.65376
1299.32	1.40582
1299.59	-1.73334
1299.87	-1.70549
1300.14	1.48861
1300.41	-0.600857
1300.69	-1.63679
1300.96	-7.94674
1301.23	-4.75001
1301.51	3.72589
1301.78	-1.52625
1302.05	0.608559
1302.33	-5.70555
1302.6	2.75659
1302.87	0.662971
1303.15	-1.43066
1303.42	-3.52168
1303.69	3.88426
1303.97	1.80251
1304.24	-5.54766
1304.51	2.92009
1304.79	-1.2714
1305.06	1.91997
1305.33	4.06142
1305.6	4.08574
1305.88	-1.15786
1306.15	0.987778
1306.42	-3.19759
1306.7	1.05834
1306.97	-1.01898
1307.24	0.0635834
1307.52	-0.966839
1307.79	-0.938992
1308.06	-0.908993
1308.34	1.23259
1308.61	2.31831
1308.88	2.35002
1309.15	-3.94742
1309.43	1.36668
1309.7	0.342758
1309.97	7.76137
1310.25	-1.72134
1310.52	-2.75113
1310.79	1.4958
1311.06	3.63106
1311.34	-0.563332
1311.61	6.85618
1311.88	-1.55609
1312.16	-6.80134
1312.43	0.62307
1312.7	4.88159
1312.98	2.80421
1313.25	2.83111
1313.52	-4.53706
1313.79	-5.56696
1314.07	1.85219
1314.34	-1.2883
1314.61	0.858009
1314.89	-3.33435
1315.16	-2.24716
1315.43	2.00857
1315.7	-1.13172
1315.98	2.06582
1316.25	-0.0204697
1316.52	0.00571442
1316.79	5.31358
1317.07	6.40085
1317.34	1.14762
1317.61	3.28601
1317.88	-1.97432
1318.16	-0.900105
1318.43	0.170837
1318.7	3.34962
1318.97	3.36857
1319.25	0.216949
1319.52	-2.92622
1319.79	3.42318
1320.06	-1.82846
1320.34	4.51441
1320.61	2.43957
1320.88	1.41497
1321.16	-2.77399
1321.43	-3.80257
1321.7	-0.610565
1321.97	-2.69413
1322.25	2.61053
1322.52	0.518093
1322.79	-3.69033
1323.06	0.527039
1323.33	-2.63834
1323.61	-3.67665
1323.88	-0.498184
1324.15	-1.51072
1324.42	2.76036
1324.7	-0.355343
1324.97	-2.41974
1325.24	-0.267403
1325.51	-0.222012
1325.79	-1.23454
1326.06	3.01972
1326.33	4.0935
1326.6	3.07197
1326.87	2.04235
1327.15	1.01083
1327.42	-1.07751
1327.69	3.16013
1327.96	0.0127029
1328.23	2.13461
1328.51	3.19754
1328.78	-3.1166
1329.05	0.0536575
1329.32	0.0679169
1329.6	2.18576
1329.87	-4.115
1330.14	0.1031
1330.41	2.2173
1330.68	2.22943
1330.96	1.19207
1331.23	3.30631
1331.5	7.5202
1331.77	-5.06313
1332.04	-3.9956
1332.32	1.26974
1332.59	-0.810783
1332.86	0.25684
1333.13	1.32451
1333.4	4.48976
1333.67	0.315571
1333.95	-0.711639
1334.22	0.358727
1334.49	4.57385
1334.76	-1.69337
1335.03	0.418808
1335.3	0.433743
1335.58	3.59542
1335.85	5.70843
1336.12	0.492855
1336.39	1.56447
1336.66	-2.59654
1336.94	4.76218
1337.21	-4.63538
1337.48	3.76981
1337.75	2.75045
1338.02	-0.366085
1338.29	0.705067
1338.57	1.77499
1338.84	-0.298248
1339.11	1.81441
1339.38	-2.3562
1339.65	6.02974
1339.93	0.811527
1340.2	3.96802
1340.47	-0.193741
1340.74	-2.26157
1341.01	2.99266
1341.28	0.927166
1341.55	1.99863
1341.82	4.11185
1342.1	0.992767
1342.37	2.05373
1342.64	-3.16049
1342.91	1.03318
1343.18	4.17699
1343.45	1.04702
1343.73	2.10019
1344	4.19807
1344.27	-3.09269
1344.54	-4.12193
1344.81	3.19266
1345.08	4.25365
1345.35	4.27414
1345.63	6.37991
1345.9	-1.93892
1346.17	-0.880016
1346.44	3.30286
1346.71	1.23592
1346.98	2.29366
1347.25	4.39223
1347.52	1.2853
1347.8	3.38035
1348.07	1.31215
1348.34	3.40923
1348.61	4.46178
1348.88	6.5613
1349.15	-0.694508
1349.42	2.45396
1349.69	2.4876
1349.96	1.48566
1350.24	0.474503
1350.51	-0.507507
1350.78	-2.52189
1351.05	3.71761
1351.32	0.549126
1351.59	5.71714
1351.86	4.70725
1352.13	2.65887
1352.41	1.62852
1352.68	3.71833
1352.95	-0.399342
1353.22	4.82643
1353.49	11.0714
1353.76	2.77991
1354.03	4.87656
1354.3	1.77983
1354.57	4.91261
1354.84	0.775646
1355.11	3.90554
1355.39	4.95813
1355.66	4.97306
1355.93	3.94927
1356.2	11.2239
1356.47	-0.169453
1356.74	5.03301
1357.01	8.15478
1357.28	-0.129345
1357.55	5.06236
1357.82	3.00353
1358.09	-2.15724
1358.36	5.11544
1358.63	4.10072
1358.9	6.19209
1359.18	5.17359
1359.45	8.2972
1359.72	7.27925
1359.99	4.19329
1360.26	4.21811
1360.53	10.4615
1360.8	4.27649
1361.07	8.44778
1361.34	2.25501
1361.61	2.27407
1361.88	2.29151
1362.15	7.48345
1362.42	7.49439
1362.69	9.57452
1362.97	5.4451
1363.24	7.52531
1363.51	7.53517
1363.78	8.57671
1364.05	1.34486
1364.32	4.45916
1364.59	8.60972
1364.86	18.972
1365.13	7.6287
1365.4	6.61932
1365.67	9.74488
1365.94	9.76917
1366.21	6.69276
1366.48	16.0232
1366.75	7.76712
1367.02	11.9173
1367.29	11.9321
1367.56	8.83952
1367.83	8.85291
1368.1	14.03
1368.37	15.0684
1368.64	16.1027
1368.91	18.1648
1369.18	23.3206
1369.45	20.2242
1369.72	16.1035
1369.99	7.86668
1370.26	17.1566
1370.54	13.047
1370.81	14.0919
1371.08	15.1376
1371.34	17.214
1371.62	12.0789
1371.89	17.2456
1372.16	10.0476
1372.43	16.2492
1372.7	15.2463
1372.97	18.3552
1373.24	14.2582
1373.51	20.444
1373.78	13.2404
1374.05	20.4483
1374.32	19.41
1374.59	26.6399
1374.86	21.529
1375.13	22.6021
1375.4	30.894
1375.67	35.0792
1375.94	28.9265
1376.21	35.1296
1376.48	31.015
1376.75	39.2697
1377.02	32.0591
1377.29	29.9898
1377.56	34.0653
1377.83	42.2803
1378.09	36.0914
1378.36	41.269
1378.64	43.3246
1378.91	43.3042
1379.18	42.2527
1379.44	56.6122
1379.71	57.622
1379.98	54.5226
1380.25	59.6438
1380.52	57.5799
1380.79	60.6568
1381.06	56.5573
1381.33	60.6793
1381.6	59.6795
1381.87	64.8429
1382.14	51.5522
1382.41	67.0004
1382.68	66.0199
1382.95	58.876
1383.22	55.8246
1383.49	59.9711
1383.76	59.9986
1384.03	57.9616
1384.3	50.7309
1384.57	63.889
1384.84	57.5886
1385.11	59.5726
1385.38	63.791
1385.65	63.9744
1385.92	63.0937
1386.19	81.6678
1386.45	116.599
1386.72	184.418
1386.99	298.322
1387.26	416.062
1387.53	395.348
1387.8	247.73
1388.07	135.897
1388.34	83.6275
1388.61	54.9403
1388.88	46.7388
1389.15	38.5377
1389.42	34.4394
1389.69	27.275
1389.96	28.3052
1390.23	24.2184
1390.49	17.0627
1390.76	29.3544
1391.03	21.1773
1391.3	20.1651
1391.57	16.0838
1391.84	22.2359
1392.11	13.0473
1392.38	16.142
1392.65	21.2821
1392.92	20.2771
1393.19	12.1015
1393.46	13.1359
1393.73	12.1212
1393.99	15.1992
1394.26	14.1808
1394.53	17.2541
1394.8	14.1943
1395.07	15.2308
1395.34	10.1344
1395.61	12.2005
1395.88	7.10357
1396.15	14.2824
1396.42	9.18876
1396.68	17.3961
1396.95	15.3688
1397.22	16.4064
1397.49	7.21473
1397.76	13.3836
1398.03	3.16404
1398.3	6.24891
1398.57	11.3883
1398.84	8.3297
1399.11	9.38281
1399.38	11.4735
1399.64	6.39011
1399.91	12.5815
1400.18	13.6387
1400.45	7.50124
1400.72	9.56905
1400.99	10.5997
1401.26	6.48029
1401.53	8.55139
1401.79	13.6902
1402.06	8.56799
1402.33	7.54679
1402.6	11.6526
1402.87	3.45393
1403.14	4.4845
1403.41	8.59249
1403.68	5.52591
1403.94	9.64025
1404.21	9.65619
1404.48	11.7232
1404.75	9.68819
1405.02	12.7793
1405.29	4.59169
1405.56	10.7588
1405.82	5.64705
1406.09	7.71439
1406.36	9.78151
1406.63	9.79741
1406.9	10.8379
1407.17	6.74728
1407.44	18.0322
1407.7	12.9014
1407.97	9.82123
1408.24	25.1932
1408.51	21.0948
1408.78	29.294
1409.05	27.2529
1409.31	24.1993
1409.58	17.0535
1409.85	12.9949
1410.12	12.0429
1410.39	6.95394
1410.66	7.96083
1410.92	5.85179
1411.19	6.89616
1411.46	4.88522
1411.73	7.9996
1412	0.820114
1412.27	10.0723
1412.53	7.0029
1412.8	5.9878
1413.07	-0.158939
1413.34	6.01629
1413.61	1.92294
1413.88	5.01873
1414.14	6.06129
1414.41	-2.14207
1414.68	8.14672
1414.95	4.04944
1415.22	0.977417
1415.48	4.07153
1415.75	6.13903
1416.02	4.09362
1416.29	2.04908
1416.56	1.0269
1416.82	2.05644
1417.09	2.05744
1417.36	4.11328
1417.63	1.03322
1417.9	2.06033
1418.17	5.14105
1418.43	4.11928
1418.7	4.13041
1418.97	3.12328
1419.24	3.14712
1419.5	3.16939
1419.77	4.22854
1420.04	0.157635
1420.31	3.29186
1420.58	3.21978
1420.84	10.2931
1421.11	6.22158
1421.38	2.08825
1421.65	3.11521
1421.92	3.13984
1422.18	2.14554
1422.45	4.21967
1422.72	6.26577
1422.99	5.26671
1423.26	3.21982
1423.52	2.19518
1423.79	3.21772
1424.06	5.26435
1424.33	3.20943
1424.59	5.24947
1424.86	3.19343
1425.13	-0.901848
1425.4	4.22222
1425.66	9.34957
1425.93	6.28782
1426.2	3.22673
1426.47	2.21463
1426.73	1.20374
1427	3.26846
1427.27	9.43548
1427.54	-1.82221
1427.81	4.3475
1428.07	5.39887
1428.34	1.31708
1428.61	2.35753
1428.88	1.33857
1429.14	2.36462
1429.41	4.41338
1429.68	5.43883
1429.94	1.33062
1430.21	-0.728439
1430.48	8.48456
1430.75	2.32602
1431.02	5.39386
1431.28	2.32325
1431.55	2.34627
1431.82	4.41224
1432.08	3.39537
1432.35	8.52541
1432.62	3.40675
1432.89	3.41067
1433.15	0.340015
1433.42	4.44125
1433.69	6.49194
1433.96	7.51755
1434.22	5.47049
1434.49	0.353188
1434.76	4.45128
1435.02	2.40593
1435.29	3.43717
1435.56	-3.72156
1435.83	7.5557
1436.09	4.4891
1436.36	0.398354
1436.63	-2.66488
1436.89	1.44771
1437.16	4.53947
1437.43	-1.60188
1437.7	-1.59468
1437.96	-2.61465
1438.23	2.51949
1438.5	1.49594
1438.77	0.468739
1439.03	3.54502
1439.3	9.71011
1439.57	3.56342
1439.83	2.55073
1440.1	3.57589
1440.37	1.52219
1440.63	2.54575
1440.9	2.5456
1441.17	0.497696
1441.43	3.57896
1441.7	-0.506626
1441.97	-0.493725
1442.24	-0.476509
1442.5	2.60206
1442.77	-1.50164
1443.03	1.57629
1443.3	1.57653
1443.57	1.57708
1443.84	3.62863
1444.1	5.67989
1444.37	-0.473499
1444.64	-0.475018
1444.9	1.57461
1445.17	2.60229
1445.44	-0.463642
1445.7	3.65094
1445.97	2.63119
1446.24	1.60823
1446.5	3.65912
1446.77	-2.49606
1447.04	1.60215
1447.3	1.59815
1447.57	0.572426
1447.84	1.59707
1448.1	1.59656
1448.37	4.67028
1448.64	-3.52928
1448.9	-0.456352
1449.17	1.59224
1449.44	1.5928
1449.7	3.64474
1449.97	-0.449429
1450.24	5.70538
1450.5	4.68728
1450.77	0.590809
1451.04	1.61496
1451.3	2.63937
1451.57	0.591915
1451.83	5.71763
1452.1	3.66907
1452.37	3.66806
1452.63	-1.45307
1452.9	0.604908
1453.17	3.68545
1453.43	-2.46242
1453.7	-2.46361
1453.97	7.77902
1454.23	4.69922
1454.5	1.624
1454.77	1.62282
1455.03	1.62239
1455.3	0.599586
1455.56	3.67493
1455.83	2.65411
1456.1	-1.44075
1456.36	2.65988
1456.63	-0.411716
1456.9	0.612526
1457.16	6.75805
1457.43	1.63363
1457.69	1.63126
1457.96	-2.46914
1458.23	-2.47303
1458.49	-0.428917
1458.76	-4.52907
1459.02	2.63177
1459.29	0.577927
1459.56	0.570621
1459.82	2.60897
1460.09	3.62292
1460.36	3.61333
1460.62	2.58223
1460.89	-2.53149
1461.15	5.6605
1461.42	2.61218
1461.69	4.67429
1461.95	3.66992
1462.22	3.64582
1462.48	1.52281
1462.75	-3.61414
1463.02	-0.558304
1463.28	-2.58765
1463.55	5.57604
1463.81	0.455177
1464.08	0.44825
1464.35	-1.58806
1464.61	-1.59063
1464.88	1.46675
1465.14	0.444473
1465.41	-0.576683
1465.67	-1.59797
1465.94	3.49947
1466.21	1.4551
1466.47	2.46948
1466.74	-1.61705
1467	-0.607082
1467.27	2.44238
1467.54	1.41695
1467.8	1.41152
1468.07	2.42646
1468.33	1.40171
1468.6	1.39296
1468.86	-1.66872
1469.13	-4.72734
1469.39	-1.6749
1469.66	-5.74991
1469.93	3.4119
1470.19	-1.68288
1470.46	-0.671246
1470.72	-1.69606
1470.99	-1.70177
1471.25	-1.70583
1471.52	-1.7074
1471.79	2.3653
1472.05	-3.74001
1472.32	-0.687443
1472.58	-1.70778
1472.85	-2.7302
1473.11	3.36905
1473.38	-1.7242
1473.64	4.37545
1473.91	-0.71904
1474.17	-0.727001
1474.44	1.30193
1474.71	1.29871
1474.97	-1.75491
1475.24	6.37396
1475.5	2.29696
1475.77	1.27245
1476.03	-0.768028
1476.3	-5.85727
1476.56	0.230564
1476.83	-1.81134
1477.09	6.30342
1477.36	3.24002
1477.62	4.24061
1477.89	3.2151
1478.15	2.19421
1478.42	4.21418
1478.68	5.22976
1478.95	1.17548
1479.22	-4.909
1479.48	0.17104
1479.75	2.20536
1480.01	2.20317
1480.28	2.20545
1480.54	1.19034
1480.81	0.172615
1481.07	-0.846542
1481.34	0.151371
1481.6	2.15685
1481.87	-5.9961
1482.13	1.04132
1482.4	-2.01554
1482.66	5.02493
1482.93	4.11079
1483.19	4.12101
1483.46	1.09602
1483.72	-0.976959
1483.99	4.10582
1484.25	3.09713
1484.52	3.08175
1484.78	-0.982586
1485.05	-0.990788
1485.31	-0.999817
1485.58	0.00128937
1485.84	1.0009
1486.11	-2.04556
1486.37	1.99456
1486.64	-0.0355949
1486.9	-0.0415726
1487.17	2.98991
1487.43	-0.0486565
1487.7	2.97815
1487.96	-0.0674362
1488.22	1.94374
1488.49	0.925385
1488.75	-1.10184
1489.02	-0.0944824
1489.28	10.0144
1489.55	-5.1558
1489.81	-2.12819
1490.08	3.93257
1490.34	2.91821
1490.61	-1.13178
1490.87	2.90643
1491.14	-1.14009
1491.4	-4.17402
1491.67	-0.130543
1491.93	-2.15744
1492.19	0.865677
1492.46	-1.17049
1492.72	0.832447
1492.99	3.8467
1493.25	-0.203651
1493.52	4.83493
1493.78	3.81641
1494.05	2.79715
1494.31	-0.234966
1494.58	-0.239086
1494.84	-0.24527
1495.1	-0.250156
1495.37	4.79221
1495.63	-1.2662
1495.9	1.75883
1496.16	-1.27139
1496.43	3.7738
1496.69	-2.28325
1496.96	-0.265015
1497.22	1.75153
1497.48	-0.271992
1497.75	0.732082
1498.01	7.79343
1498.28	0.718708
1498.54	-0.302666
1498.81	4.73645
1499.07	0.694389
1499.34	-1.32958
1499.6	1.6899
1499.86	-5.38453
1500.13	-3.37855
1500.39	-1.36979
1500.66	5.67693
1500.92	2.64719
1501.18	-1.38669
1501.45	1.63599
1501.71	1.63198
1501.98	2.63423
1502.24	-0.399315
1502.5	0.598621
1502.77	-5.4639
1503.03	0.56432
1503.3	-1.45788
1503.56	-3.4784
1503.83	4.57785
1504.09	-0.458115
1504.35	-0.461235
1504.62	-0.46402
1504.88	-4.49961
1505.15	1.53925
1505.41	1.53226
1505.67	5.55873
1505.94	2.53287
1506.2	1.52122
1506.47	2.52364
1506.73	-0.504242
1506.99	1.51047
1507.26	0.501278
1507.52	-4.5492
1507.78	1.48419
1508.05	-0.544384
1508.31	0.447193
1508.58	1.43353
1508.84	0.401493
1509.1	1.3815
1509.37	5.37693
1509.63	-0.674431
1509.9	3.32796
1510.16	-5.72356
1510.42	-4.73096
1510.69	-2.73131
1510.95	3.29579
1511.21	2.30327
1511.48	0.2939
1511.74	4.30237
1512.01	2.27942
1512.27	-1.75248
1512.53	5.25913
1512.8	2.23056
1513.06	-3.80535
1513.32	0.193523
1513.59	0.184616
1513.85	1.17919
1514.11	1.17152
1514.38	4.17321
1514.64	0.158329
1514.9	1.15876
1515.17	4.16958
1515.43	3.16419
1515.7	-2.85598
1515.96	-4.86504
1516.22	-2.86077
1516.49	3.15654
1516.75	-4.87281
1517.01	1.14112
1517.28	1.13252
1517.54	1.12455
1517.8	-2.89112
1518.07	1.12043
1518.33	3.12574
1518.59	-0.891434
1518.86	-1.90136
1519.12	1.1001
1519.38	-4.92853
1519.65	-3.9347
1519.91	1.07124
1520.17	3.06519
1520.44	-0.962498
1520.7	-4.99107
1520.96	-3.00182
1521.23	2.99511
