#Acq. time (s)=	30
#Accumulations=	2
#Range (cm-¹)=	1200...2365
#Windows=	3
#Auto scanning=	Off
#Autofocus=	Off
#Macrospot=	Off
#AutoExposure=	Off
#Spike filter=	Multiple accum.
#Delay time (s)=	2
#Binning=	1
#Readout mode=	Signal
#DeNoise=	Off
#ICS correction=	On
#Dark correction=	Off
#Inst. Process=	Off
#Detector Gain=	Best Dynamic
#Detector ADC=	50 kHz HS
#Detector temperature (°C)=	-60.09
#Instrument=	LabRAM HR Evol
#Detector=	SIN-EM FIVIS
#Objective=	x50_VIS_LWD
#Grating=	1800 (450-850nm)
#ND Filter=	100%
#Laser=	532nm_Edge
#Hole=	100.021
#Temperature=	0
#Range=	Visible
#StageXY=	75x50mm Scan+
#StageZ=	Z motor
#X (µm)=	0
#Y (µm)=	0
#Z (µm)=	2.5
#Full time(mm:ss)=	3:18
#Project=	21_11_26
#Sample=	BU19(2)w
#Site=	
#Title=	BU19(2)w-A-FF2b-FI05-V_1800 (450-850nm)_532nm_Edge_100%_x50_VIS_LWD_H100um_30sX2
#Remark=	
#Date=	26.11.2021 14:50
#Acquired=	26.11.2021 14:50:13
#Base:Fit=	16.12.2021 16:00:56
#Base:Fit=	16.12.2021 16:10:24
#Base:Sub=	16.12.2021 16:10:25
1202.72	6.86941
1203	8.32047
1203.28	7.50273
1203.56	2.28181
1203.84	1.35424
1204.11	5.82704
1204.39	7.07727
1204.67	8.36781
1204.95	3.21201
1205.23	4.47363
1205.5	1.41705
1205.78	-2.71793
1206.06	6.02591
1206.34	0.80793
1206.61	-1.1889
1206.89	2.17348
1207.17	1.24517
1207.45	2.46391
1207.73	3.69158
1208	2.77623
1208.28	-1.34519
1208.56	6.30076
1208.84	8.58194
1209.11	7.65325
1209.39	-2.89867
1209.67	2.59942
1209.95	-5.79707
1210.23	-0.301697
1210.5	-0.164223
1210.78	3.15717
1211.06	2.20331
1211.34	1.25488
1211.61	-0.76635
1211.89	-1.71558
1212.17	1.59071
1212.45	0.629555
1212.72	6.0713
1213	-5.54111
1213.28	-3.30282
1213.56	-3.18924
1213.83	-2.00696
1214.11	-4.02797
1214.39	-4.96404
1214.67	-2.70992
1214.94	-5.7831
1215.22	9.23907
1215.5	-2.35972
1215.78	-1.18575
1216.05	2.11241
1216.33	-0.993027
1216.61	-4.10686
1216.89	2.34402
1217.16	0.287148
1217.44	-1.76232
1217.72	-0.623199
1218	-1.61127
1218.27	3.77463
1218.55	0.664909
1218.83	-1.38277
1219.1	-7.6685
1219.38	-4.40128
1219.66	0.983734
1219.94	6.36323
1220.21	2.18863
1220.49	2.2683
1220.77	-0.83252
1221.04	3.48438
1221.32	0.371643
1221.6	-1.68813
1221.88	2.61189
1222.15	-5.81879
1222.43	-7.89678
1222.71	-1.50839
1222.98	1.69379
1223.26	-4.62731
1223.54	0.688896
1223.81	-0.339371
1224.09	2.8635
1224.37	-11.893
1224.65	-3.40327
1224.92	0.862251
1225.2	-0.148186
1225.48	-2.20663
1225.76	5.24693
1226.03	2.14117
1226.31	-3.0765
1226.59	1.19225
1226.86	2.29039
1227.14	-0.845406
1227.42	1.29731
1227.69	-3.9758
1227.97	-2.95403
1228.25	1.25298
1228.52	0.193253
1228.8	-4.05201
1229.08	-7.22573
1229.35	-2.99138
1229.63	-5.91907
1229.91	-2.55488
1230.18	3.73158
1230.46	-0.531174
1230.74	-5.7945
1231.01	0.56456
1231.29	4.75641
1231.57	1.46251
1231.84	4.6578
1232.12	-7.92725
1232.4	2.60355
1232.67	-4.7367
1232.95	2.63939
1233.23	4.75825
1233.5	-1.53145
1233.78	3.73933
1234.06	6.91521
1234.33	5.8914
1234.61	-1.43687
1234.89	-2.45902
1235.16	-0.327736
1235.44	0.744995
1235.71	4.97185
1235.99	-5.51741
1236.27	0.810104
1236.54	3.97479
1236.82	0.82135
1237.1	2.92084
1237.37	3.96272
1237.65	2.89201
1237.93	3.91981
1238.2	8.09561
1238.48	3.87205
1238.76	6.9941
1239.03	-3.51279
1239.31	-0.376389
1239.58	5.90655
1239.86	0.65889
1240.14	1.70398
1240.41	5.89561
1240.69	9.04074
1240.97	-2.48682
1241.24	7.99975
1241.52	-1.43267
1241.79	1.70322
1242.07	3.78206
1242.35	-2.51784
1242.62	2.71996
1242.9	1.67332
1243.18	1.6807
1243.45	5.87998
1243.73	6.92159
1244	7.96466
1244.28	5.8674
1244.56	11.101
1244.83	5.84615
1245.11	0.588768
1245.39	13.1377
1245.66	11.0096
1245.94	2.58971
1246.21	13.0214
1246.49	12.9977
1246.76	8.79265
1247.04	6.68855
1247.32	9.81541
1247.59	5.60928
1247.87	3.50208
1248.14	10.8056
1248.42	14.9426
1248.7	17.0022
1248.97	15.9377
1249.25	15.9295
1249.52	4.41657
1249.8	15.9011
1250.08	7.51566
1250.35	11.6848
1250.63	6.4211
1250.9	13.7001
1251.18	11.5721
1251.45	9.44716
1251.73	13.5934
1252.01	15.6489
1252.28	16.6581
1252.56	8.26865
1252.83	12.41
1253.11	15.5033
1253.39	15.4663
1253.66	10.2206
1253.94	18.5504
1254.21	12.2855
1254.49	15.4157
1254.76	15.4175
1255.04	14.3622
1255.31	17.475
1255.59	21.64
1255.87	22.6641
1256.14	22.6388
1256.42	25.7561
1256.69	35.1432
1256.97	46.6292
1257.24	49.7484
1257.52	55.9877
1257.79	52.8139
1258.07	52.7807
1258.35	40.2191
1258.62	42.2757
1258.9	37.0205
1259.17	41.1458
1259.45	49.4707
1259.72	55.7274
1260	57.814
1260.27	66.2054
1260.55	78.6749
1260.82	83.8337
1261.1	91.0563
1261.37	120.203
1261.65	142.053
1261.92	134.76
1262.2	142.24
1262.48	164.469
1262.75	158.325
1263.02	159.998
1263.3	152.382
1263.58	148.081
1263.85	126.366
1264.13	103.524
1264.4	110.996
1264.68	82.8279
1264.95	78.5207
1265.23	63.8271
1265.5	71.1211
1265.78	54.3652
1266.05	52.229
1266.33	54.2963
1266.6	45.9252
1266.88	48.0113
1267.15	41.7428
1267.43	32.3408
1267.7	46.9918
1267.98	51.193
1268.25	44.9375
1268.53	49.1612
1268.8	44.9993
1269.08	38.7188
1269.35	38.7182
1269.63	46.0476
1269.9	38.6854
1270.18	47.0185
1270.45	32.298
1270.73	45.8639
1271	38.4861
1271.28	33.2127
1271.55	44.6965
1271.83	37.3359
1272.1	38.3722
1272.38	37.3347
1272.65	45.7256
1272.93	47.851
1273.2	33.2
1273.47	37.4039
1273.75	49.9962
1274.03	50.0134
1274.3	40.5924
1274.57	47.9376
1274.85	48.9753
1275.12	42.6593
1275.4	49.9851
1275.67	64.6695
1275.95	57.3327
1276.22	64.6868
1276.5	61.5574
1276.77	71.0164
1277.05	71.0306
1277.32	87.8398
1277.6	73.1605
1277.87	81.5892
1278.14	99.4801
1278.42	104.758
1278.69	124.755
1278.97	136.368
1279.24	157.427
1279.52	199.533
1279.79	256.309
1280.07	302.551
1280.34	377.166
1280.61	532.787
1280.89	743.18
1281.16	1005.17
1281.44	1358.95
1281.71	1843.53
1281.99	2335.36
1282.26	2801.6
1282.53	2988.19
1282.81	2990.64
1283.08	2780.64
1283.36	2414.14
1283.63	1914.73
1283.91	1388.57
1284.18	1016.54
1284.45	730.096
1284.73	504.207
1285	383.126
1285.28	280.9
1285.55	243.853
1285.83	197.408
1286.1	167.927
1286.37	149.02
1286.65	112.153
1286.92	108.952
1287.2	98.4148
1287.47	91.0284
1287.75	82.5764
1288.02	75.1748
1288.29	64.6296
1288.57	65.6761
1288.84	60.4145
1289.12	62.5261
1289.39	64.6501
1289.66	49.9344
1289.94	55.2216
1290.21	45.7693
1290.49	59.4841
1290.76	40.5205
1291.03	36.2924
1291.31	42.6042
1291.58	29.9629
1291.86	42.5999
1292.13	37.3293
1292.4	35.2243
1292.68	40.499
1292.95	35.2268
1293.22	39.4313
1293.5	35.2266
1293.77	34.214
1294.05	26.8876
1294.32	24.8287
1294.59	30.1171
1294.87	28.0118
1295.14	38.5524
1295.42	30.1413
1295.69	25.9736
1295.96	22.8715
1296.24	22.9531
1296.51	28.2874
1296.79	29.3621
1297.06	29.3714
1297.33	25.1381
1297.61	21.956
1297.88	19.8287
1298.15	19.8128
1298.43	16.6254
1298.7	24.0385
1298.97	18.7584
1299.25	13.4712
1299.52	15.5788
1299.79	17.6837
1300.07	21.915
1300.34	19.8326
1300.62	18.7983
1300.89	13.533
1301.16	10.3726
1301.44	13.5484
1301.71	13.5656
1301.98	8.31451
1302.25	17.8478
1302.53	11.5322
1302.8	11.5487
1303.08	6.28008
1303.35	6.2887
1303.62	9.46207
1303.9	8.40465
1304.17	20.032
1304.44	9.49096
1304.72	11.6194
1304.99	13.7467
1305.26	8.47286
1305.54	4.25152
1305.81	13.748
1306.08	10.5789
1306.35	11.6293
1306.63	12.6842
1306.9	9.53103
1307.18	0.05896
1307.45	5.35983
1307.72	7.49223
1308	5.40233
1308.27	-7.23395
1308.54	6.50383
1308.81	6.52023
1309.09	10.7664
1309.36	8.69399
1309.63	1.34422
1309.91	-2.84128
1310.18	1.41145
1310.45	3.54384
1310.73	2.50735
1311	5.6981
1311.27	5.72698
1311.55	3.64661
1311.82	6.84267
1312.09	-1.56793
1312.37	3.75131
1312.64	1.67921
1312.91	1.71231
1313.18	7.01585
1313.46	5.97389
1313.73	-0.335022
1314	1.79758
1314.28	2.87597
1314.55	-5.53894
1314.82	-2.33765
1315.09	-2.29951
1315.37	3.02016
1315.64	-0.106384
1315.91	3.10399
1316.18	-1.07817
1316.46	3.17507
1316.73	1.08985
1317	0.0628281
1317.28	3.26172
1317.55	1.18307
1317.82	3.34117
1318.09	-0.841675
1318.37	-10.3093
1318.64	0.292671
1318.91	-2.8397
1319.18	-3.86039
1319.46	3.56847
1319.73	1.48837
1320	2.57821
1320.28	-0.548271
1320.55	-0.510056
1320.82	0.579407
1321.09	-3.61964
1321.37	-0.430634
1321.64	4.8635
1321.91	4.87502
1322.18	5.95412
1322.46	-1.41542
1322.73	0.72316
1323	2.86123
1323.27	-0.273834
1323.55	-8.68275
1323.82	1.91092
1324.09	5.11958
1324.36	-0.109001
1324.64	0.985245
1324.91	-2.13414
1325.18	-4.20229
1325.45	3.22769
1325.73	-5.18414
1326	0.0943375
1326.27	-0.96125
1326.54	-7.2878
1326.81	1.15236
1327.09	3.29543
1327.36	2.3168
1327.63	4.52382
1327.9	-5.93379
1328.18	4.67733
1328.45	-2.6222
1328.72	-7.8176
1328.99	1.74819
1329.27	-3.47151
1329.54	1.84184
1329.81	-5.48632
1330.08	-2.27569
1330.35	1.98713
1330.63	2.02588
1330.9	-0.0486984
1331.17	1.03666
1331.44	-1.04533
1331.71	2.13589
1331.99	2.1509
1332.26	-5.19599
1332.53	3.25501
1332.8	2.22948
1333.07	-1.95407
1333.35	-0.877502
1333.62	2.30295
1333.89	2.33112
1334.16	-0.790565
1334.43	13.9447
1334.71	-4.92512
1334.98	5.60817
1335.25	-5.89962
1335.52	1.48611
1335.79	-2.67039
1336.07	0.518387
1336.34	3.70744
1336.61	-1.49189
1336.88	4.8447
1337.15	-1.39841
1337.43	0.747574
1337.7	3.94249
1337.97	-5.44154
1338.24	1.93291
1338.51	6.16245
1338.78	5.16099
1339.06	-9.45549
1339.33	-3.12149
1339.6	1.12371
1339.87	8.51599
1340.14	1.25025
1340.42	2.35951
1340.69	3.47009
1340.96	-0.655853
1341.23	-3.73847
1341.5	-1.58633
1341.77	3.70522
1342.04	3.75768
1342.32	6.94697
1342.59	-2.42862
1342.86	10.1701
1343.13	3.93307
1343.4	-2.29115
1343.67	2.99561
1343.95	4.10207
1344.22	7.30247
1344.49	4.23035
1344.76	3.24861
1345.03	9.58016
1345.3	1.26578
1345.58	-4.95879
1345.85	2.39867
1346.12	2.44395
1346.39	-0.650764
1346.66	-1.66691
1346.93	7.7672
1347.2	1.54851
1347.47	6.8053
1347.75	0.592903
1348.02	6.90049
1348.29	0.702972
1348.56	8.05936
1348.83	6.03654
1349.1	0.881477
1349.37	6.14471
1349.65	2.03046
1349.92	2.08466
1350.19	3.18056
1350.46	-0.928719
1350.73	3.29018
1351	6.46207
1351.27	4.43015
1351.54	10.7281
1351.81	3.49645
1352.09	11.8795
1352.36	6.74933
1352.63	3.70975
1352.9	7.95846
1353.17	11.1765
1353.44	8.1396
1353.71	10.3649
1353.98	6.34621
1354.25	18.8399
1354.53	9.41176
1354.8	7.31979
1355.07	6.36243
1355.34	10.5984
1355.61	6.48635
1355.88	8.62176
1356.15	15.9957
1356.42	11.9203
1356.69	3.66512
1356.96	9.96336
1357.24	15.2231
1357.51	18.404
1357.78	19.5047
1358.05	22.6793
1358.32	16.5092
1358.59	13.4542
1358.86	15.5898
1359.13	20.8342
1359.4	20.8914
1359.67	12.6565
1359.94	19.9802
1360.22	14.8484
1360.49	12.8255
1360.76	24.2751
1361.03	18.1176
1361.3	25.4379
1361.57	20.3339
1361.84	18.3356
1362.11	21.5147
1362.38	22.6162
1362.65	19.5764
1362.92	31.0344
1363.19	32.1439
1363.46	32.2283
1363.73	36.4667
1364	36.5585
1364.28	31.4709
1364.55	45.0145
1364.82	29.5481
1365.09	34.7945
1365.36	29.6767
1365.63	31.8036
1365.9	28.753
1366.17	35.0183
1366.44	34.0392
1366.71	30.9903
1366.98	32.0743
1367.25	26.9499
1367.52	37.3497
1367.79	50.8538
1368.06	55.0842
1368.33	79.9818
1368.6	155.532
1368.87	181.471
1369.15	165.026
1369.41	107.226
1369.68	83.5368
1369.95	56.7186
1370.23	46.4476
1370.5	46.5154
1370.77	32.099
1371.04	45.5993
1371.31	43.5934
1371.58	37.4467
1371.85	37.4922
1372.12	44.7557
1372.39	48.9204
1372.66	35.5544
1372.93	45.9188
1373.2	52.1663
1373.47	55.3246
1373.74	48.1768
1374.01	56.4909
1374.28	58.6236
1374.55	55.6063
1374.82	54.6506
1375.09	62.9651
1375.36	51.701
1375.63	54.8785
1375.9	59.0979
1376.17	65.3591
1376.44	63.3895
1376.71	68.5891
1376.98	57.3119
1377.25	72.7942
1377.52	68.7035
1377.79	80.1244
1378.06	74.0698
1378.33	61.8525
1378.6	74.3639
1378.87	80.7106
1379.14	85.9745
1379.41	91.2079
1379.68	99.518
1379.95	109.885
1380.22	98.597
1380.49	106.851
1380.76	111.941
1381.03	127.375
1381.3	125.33
1381.57	131.617
1381.84	151.188
1382.11	167.616
1382.38	184.022
1382.65	197.351
1382.92	216.844
1383.19	232.212
1383.46	270.169
1383.73	320.408
1384	403.478
1384.27	478.337
1384.54	614.799
1384.81	780.024
1385.08	1080.74
1385.34	1496.6
1385.61	2236.16
1385.88	3349.57
1386.15	4886.36
1386.42	6416.08
1386.69	7044
1386.96	6413.07
1387.23	4966.85
1387.5	3279.77
1387.77	2057.52
1388.04	1362.72
1388.31	873.451
1388.58	651.569
1388.85	503.139
1389.12	398.23
1389.39	330.843
1389.66	271.406
1389.93	221.213
1390.2	199.645
1390.46	184.139
1390.73	172.854
1391	145.247
1391.27	131.923
1391.54	133.016
1391.81	122.836
1392.08	113.658
1392.35	101.406
1392.62	112.72
1392.89	95.3693
1393.16	100.552
1393.43	94.4763
1393.7	89.4282
1393.97	85.406
1394.23	79.3387
1394.5	83.5074
1394.77	71.305
1395.04	75.4773
1395.31	69.4378
1395.58	56.2401
1395.85	66.575
1396.12	58.4774
1396.39	61.6299
1396.66	72.9631
1396.93	70.9857
1397.2	60.821
1397.46	60.8826
1397.73	53.7848
1398	58.9731
1398.27	58.0337
1398.54	64.2642
1398.81	55.1571
1399.08	60.3653
1399.35	54.3179
1399.62	57.4925
1399.89	58.6134
1400.16	65.8745
1400.42	64.9347
1400.69	65.0367
1400.96	55.938
1401.23	56.0367
1401.5	61.2366
1401.77	54.1671
1402.04	63.4675
1402.31	66.6675
1402.58	66.824
1402.84	61.8573
1403.11	66.1004
1403.38	71.3575
1403.65	79.6746
1403.92	78.7338
1404.19	78.7893
1404.46	89.0545
1404.73	85.0567
1404.99	91.2833
1405.26	104.685
1405.53	109.868
1405.8	119.15
1406.07	140.734
1406.34	148.986
1406.61	160.324
1406.87	191.138
1407.14	206.608
1407.41	242.589
1407.68	268.327
1407.95	302.263
1408.22	286.989
1408.49	296.321
1408.76	297.451
1409.02	255.516
1409.29	206.401
1409.56	167.53
1409.83	144.039
1410.1	122.591
1410.37	94.9773
1410.63	88.876
1410.9	75.5891
1411.17	70.5054
1411.44	55.1859
1411.71	59.3475
1411.98	52.2427
1412.25	46.1743
1412.51	44.2214
1412.78	41.2579
1413.05	35.2477
1413.32	31.3329
1413.59	33.5235
1413.86	32.5088
1414.12	33.4981
1414.39	30.5227
1414.66	25.5315
1414.93	33.8642
1415.2	27.7799
1415.47	24.7836
1415.73	24.8651
1416	20.8412
1416.27	21.9553
1416.54	26.1504
1416.81	19.0502
1417.07	20.1653
1417.34	15.1187
1417.61	19.3165
1417.88	18.3774
1418.15	14.3512
1418.42	18.543
1418.68	15.5428
1418.95	27.9582
1419.22	20.8448
1419.49	18.8706
1419.76	16.8865
1420.02	20.0349
1420.29	18.0443
1420.56	8.86661
1420.83	16.1201
1421.1	23.3702
1421.36	19.3285
1421.63	16.3217
1421.9	19.4832
1422.17	10.3407
1422.44	18.6574
1422.7	20.8146
1422.97	14.7656
1423.24	14.9022
1423.51	14.0115
1423.77	19.0649
1424.04	16.9397
1424.31	22.1634
1424.58	11.9227
1424.85	15.0737
1425.11	21.3191
1425.38	4.01413
1425.65	17.4317
1425.92	5.19228
1426.19	19.6512
1426.45	7.41272
1426.72	15.6831
1426.99	13.6905
1427.26	10.6731
1427.52	11.7549
1427.79	16.9267
1428.06	13.9069
1428.33	16.0198
1428.59	13.0188
1428.86	10.0231
1429.13	6.00629
1429.4	3.01371
1429.67	9.24016
1429.93	9.32413
1430.2	10.4362
1430.47	6.42819
1430.74	10.6149
1431	10.7083
1431.27	1.57715
1431.54	6.80001
1431.81	9.96314
1432.07	11.0631
1432.34	0.8633
1432.61	6.05371
1432.87	5.09206
1433.14	6.17361
1433.41	7.24983
1433.68	5.24805
1433.95	7.34716
1434.21	8.42908
1434.48	3.37523
1434.75	5.52173
1435.01	6.62998
1435.28	-0.468597
1435.55	10.8752
1435.82	6.84618
1436.08	5.89045
1436.35	5.95789
1436.62	6.02481
1436.89	6.09075
1437.15	6.15577
1437.42	3.1484
1437.69	3.21759
1437.95	5.33002
1438.22	1.30067
1438.49	2.39764
1438.76	8.62128
1439.02	4.59841
1439.29	4.66987
1439.56	5.76645
1439.82	7.89348
1440.09	-5.3483
1440.36	2.93456
1440.63	4.03497
1440.89	7.18334
1441.16	4.17609
1441.43	0.145111
1441.69	2.26008
1441.96	4.37025
1442.23	3.40794
1442.49	6.56229
1442.76	4.58055
1443.03	4.65832
1443.3	-0.409199
1443.56	0.675022
1443.83	-0.290688
1444.1	-0.22916
1444.36	1.88546
1444.63	2.98027
1444.9	4.0864
1445.16	6.2164
1445.43	1.16918
1445.7	9.43866
1445.97	1.29148
1446.23	-0.699242
1446.5	4.4907
1446.77	5.57711
1447.03	4.61198
1447.3	2.62129
1447.57	6.78246
1447.83	4.78912
1448.1	0.747002
1448.37	2.86076
1448.63	-0.142551
1448.9	5.05946
1449.17	3.07458
1449.43	0.0599594
1449.7	-1.93194
1449.97	0.175766
1450.23	1.25582
1450.5	2.33538
1450.77	8.5436
1451.03	1.4269
1451.3	3.53468
1451.57	5.64166
1451.83	3.64846
1452.1	2.68062
1452.37	2.73799
1452.63	-1.30122
1452.9	6.95645
1453.17	-2.20163
1453.43	0.938396
1453.7	10.2265
1453.97	3.11326
1454.23	4.19448
1454.5	6.30085
1454.77	0.212517
1455.03	4.37086
1455.3	-5.81837
1455.56	-2.68817
1455.83	0.445549
1456.1	-0.51223
1456.36	0.575481
1456.63	-3.4661
1456.9	3.76251
1457.16	5.86147
1457.43	-0.236206
1457.7	2.89177
1457.96	0.897232
1458.23	-2.12058
1458.49	3.05861
1458.76	3.11666
1459.03	0.102669
1459.29	4.2598
1459.56	-1.82957
1459.82	1.30129
1460.09	-0.693653
1460.36	1.40825
1460.62	-3.66161
1460.89	-0.536228
1461.16	4.63544
1461.42	-5.5571
1461.69	7.80458
1461.95	0.684788
1462.22	0.731709
1462.49	-0.245743
1462.75	-1.22382
1463.02	-0.155819
1463.28	-1.13506
1463.55	-0.0691833
1463.82	2.01969
1464.08	0.026535
1464.35	5.2068
1464.61	-0.856663
1464.88	2.28203
1465.15	1.33251
1465.41	0.32692
1465.68	-1.74392
1465.94	-0.705769
1466.21	2.40319
1466.48	-0.593472
1466.74	-2.58762
1467.01	-3.57472
1467.27	-2.50895
1467.54	-7.5554
1467.8	1.67452
1468.07	-3.37849
1468.34	0.750278
1468.6	1.8196
1468.87	-4.25174
1469.13	-4.20432
1469.4	0.940712
1469.67	3.0242
1469.93	-3.0529
1470.2	-1.99403
1470.46	-5.01048
1470.73	-2.92907
1470.99	-1.86645
1471.26	-1.82127
1471.53	-0.760166
1471.79	-0.720238
1472.06	1.35839
1472.32	0.384415
1472.59	1.44832
1472.85	-7.66987
1473.12	2.55801
1473.39	-2.48929
1473.65	-1.43059
1473.92	-1.39033
1474.18	-2.3668
1474.45	0.729267
1474.71	3.82788
1474.98	-2.22882
1475.24	0.872704
1475.51	-4.17064
1475.78	0.962238
1476.04	1.00322
1476.31	-0.992985
1476.57	-4.00492
1476.84	0.105686
1477.1	1.16039
1477.37	5.26563
1477.63	-0.796478
1477.9	0.262615
1478.16	3.35577
1478.43	1.36018
1478.69	0.378246
1478.96	-2.63448
1479.22	-2.59756
1479.49	-2.56168
1479.76	-2.52669
1480.02	-1.47718
1480.29	-3.47474
1480.55	-3.44653
1480.82	-5.44567
1481.08	0.676983
1481.35	2.74361
1481.61	-0.266201
1481.88	-2.25074
1482.14	0.840248
1482.41	1.90323
1482.67	-4.13836
1482.94	-7.13832
1483.2	0.00837708
1483.47	-1.97769
1483.73	0.0953751
1484	-0.880615
1484.26	1.18784
1484.53	2.22505
1484.79	2.24009
1485.06	-3.84729
1485.32	-2.84621
1485.59	-0.803017
1485.85	-1.80625
1486.12	-2.69223
1486.38	5.46341
1486.65	1.46314
1486.91	-1.58174
1487.18	3.54138
1487.44	1.55827
1487.71	0.569691
1487.97	-1.42899
1488.24	0.627567
1488.5	0.657288
1488.77	-0.327869
1489.03	-2.32574
1489.3	-4.32086
1489.56	1.78171
1489.83	2.82529
1490.09	2.8576
1490.36	0.869026
1490.62	-3.1433
1490.89	0.932827
1491.15	1.97061
1491.42	-0.0254936
1491.68	-4.03928
1491.95	-0.973885
1492.21	-0.940212
1492.48	-3.93802
1492.74	0.138313
1493	1.18025
1493.27	-4.85361
1493.53	2.25578
1493.8	5.3182
1494.06	-1.72669
1494.33	-5.73716
1494.59	-3.6809
1494.86	0.398125
1495.12	0.428238
1495.39	-0.557201
1495.65	0.473549
1495.92	0.490662
1496.18	-5.54868
1496.45	-0.475422
1496.71	-0.450054
1496.97	-0.424152
1497.24	-1.40819
1497.5	-1.37819
1497.77	6.72579
1498.03	-5.35741
1498.3	1.73575
1498.56	-0.252659
1498.82	-4.25925
1499.09	-2.21026
1499.35	1.85768
1499.62	-3.15759
1499.88	-0.0974655
1500.15	0.944016
1500.41	-2.05487
1500.68	1.00188
1500.94	1.02866
1501.2	3.07424
1501.47	4.10699
1501.73	-0.919731
1502	-2.91296
1502.26	2.15894
1502.52	-3.87029
1502.79	5.23439
1503.05	2.22557
1503.32	2.24418
1503.58	-1.76803
1503.85	0.268108
1504.11	-1.72252
1504.37	3.3489
1504.64	0.351242
1504.9	6.4277
1505.17	2.41752
1505.43	0.42202
1505.7	0.441288
1505.96	-0.552597
1506.22	0.466427
1506.49	2.50334
1506.75	1.51917
1507.02	2.55268
1507.28	-3.46318
1507.54	3.61577
1507.81	0.618366
1508.07	2.65712
1508.34	-2.36042
1508.6	-2.33899
1508.86	0.707703
1509.13	4.76254
1509.39	3.77843
1509.66	1.78529
1509.92	1.80771
1510.18	1.83432
1510.45	2.86695
1510.71	0.8661
1510.98	-2.14169
1511.24	-0.113846
1511.5	0.90427
1511.77	1.91681
1512.03	4.93536
1512.29	0.912472
1512.56	2.92458
1512.82	-0.0852547
1513.08	0.929924
1513.35	0.941704
1513.61	-1.05309
1513.88	1.97553
1514.14	-0.00329208
1514.4	1.03552
1514.67	1.05894
1514.93	3.08307
1515.2	2.08918
1515.46	-0.913921
1515.72	-1.90765
1515.99	1.11086
1516.25	5.13057
1516.51	1.12887
1516.78	-0.861874
1517.04	-0.846447
1517.3	1.17475
1517.57	-2.81862
1517.83	2.21306
1518.09	-2.7798
1518.36	3.26152
1518.62	2.27819
1518.88	-2.71667
1519.15	1.31496
1519.41	0.332169
1519.67	0.352108
1519.94	0.3708
1520.2	-0.616734
1520.47	5.41569
1520.73	-3.59898
1520.99	-2.57771
1521.26	1.45497
1521.52	0.470936
1521.78	-0.515305
1522.05	-1.50444
1522.31	-3.49871
