#Acq. time (s)=	30
#Accumulations=	2
#Range (cm-¹)=	1200...2365
#Windows=	3
#Auto scanning=	Off
#Autofocus=	Off
#Macrospot=	Off
#AutoExposure=	Off
#Spike filter=	Multiple accum.
#Delay time (s)=	2
#Binning=	1
#Readout mode=	Signal
#DeNoise=	Off
#ICS correction=	On
#Dark correction=	Off
#Inst. Process=	Off
#Detector Gain=	Best Dynamic
#Detector ADC=	50 kHz HS
#Detector temperature (°C)=	-60.09
#Instrument=	LabRAM HR Evol
#Detector=	SIN-EM FIVIS
#Objective=	x100_VIS_LWD
#Grating=	1800 (450-850nm)
#ND Filter=	100%
#Laser=	532nm_Edge
#Hole=	100.021
#Temperature=	0
#Range=	Visible
#StageXY=	75x50mm Scan+
#StageZ=	Z motor
#X (µm)=	0
#Y (µm)=	0
#Z (µm)=	-56.4
#Full time(mm:ss)=	3:17
#Project=	21_11_26
#Sample=	BU19(2)w
#Site=	
#Title=	BU19(2)w-A-FF2b-FI01-V_1800 (450-850nm)_532nm_Edge_100%_x100_VIS_LWD_H100um_30sX2
#Remark=	
#Date=	26.11.2021 16:06
#Acquired=	26.11.2021 16:06:58
#Base:Fit=	16.12.2021 16:00:56
#Base:Fit=	16.12.2021 16:09:03
#Base:Sub=	16.12.2021 16:09:05
1202.72	8.14634
1203	5.19092
1203.28	2.1289
1203.56	2.21602
1203.84	3.36349
1204.11	-2.99634
1204.39	5.7037
1204.67	3.68773
1204.95	3.82567
1205.23	6.08447
1205.5	5.1007
1205.78	0.89019
1206.06	11.7067
1206.34	9.6333
1206.61	4.34351
1206.89	-8.44765
1207.17	6.63186
1207.45	8.84998
1207.73	-1.77326
1208	6.8786
1208.28	6.96885
1208.56	-0.437813
1208.84	-1.43089
1209.11	2.92487
1209.39	-2.34532
1209.67	-0.120789
1209.95	4.24654
1210.23	-6.3593
1210.5	2.26681
1210.78	-5.15739
1211.06	0.23951
1211.34	-2.90366
1211.61	-3.9156
1211.89	-1.72221
1212.17	-8.07161
1212.45	7.9707
1212.72	-6.89618
1213	0.616882
1213.28	-4.65829
1213.56	0.724388
1213.83	1.85057
1214.11	2.96801
1214.39	-4.41132
1214.67	-7.53529
1214.94	-4.2746
1215.22	1.1124
1215.5	-3.08622
1215.78	7.6171
1216.05	6.60573
1216.33	1.32158
1216.61	2.41433
1216.89	5.62547
1217.16	3.52082
1217.44	4.61173
1217.72	-4.92041
1218	3.60532
1218.27	1.51247
1218.55	6.8507
1218.83	-0.549026
1219.1	0.54908
1219.38	-4.71705
1219.66	0.624695
1219.94	-8.89046
1220.21	-1.43662
1220.49	1.78309
1220.77	-5.60207
1221.04	5.03779
1221.32	6.12679
1221.6	-4.45543
1221.88	-1.25361
1222.15	-0.182419
1222.43	-1.23956
1222.71	9.34588
1222.98	-4.42606
1223.26	-0.200005
1223.54	-3.37895
1223.81	8.24404
1224.09	-3.38187
1224.37	-3.38251
1224.65	-1.26408
1224.92	1.91218
1225.2	-2.29816
1225.48	-5.44518
1225.76	6.1974
1226.03	-0.108521
1226.31	-2.19114
1226.59	2.04646
1226.86	-3.2209
1227.14	-3.21833
1227.42	-7.43702
1227.69	-9.56802
1227.97	0.919579
1228.25	-3.32745
1228.52	2.95853
1228.8	-4.46758
1229.08	0.741898
1229.35	-2.40636
1229.63	-7.47785
1229.91	4.29134
1230.18	5.27695
1230.46	-1.1155
1230.74	0.97049
1231.01	-5.33497
1231.29	10.4187
1231.57	4.99744
1231.84	2.91476
1232.12	1.86569
1232.4	0.814827
1232.67	2.90883
1232.95	-1.29424
1233.23	0.803375
1233.5	7.0988
1233.78	0.793564
1234.06	7.09988
1234.33	0.802383
1234.61	2.9095
1234.89	-2.33569
1235.16	-1.27544
1235.44	-2.3242
1235.71	6.08819
1235.99	-7.57378
1236.27	5.04379
1236.54	6.088
1236.82	1.86619
1237.1	3.94915
1237.37	6.02586
1237.65	-0.313187
1237.93	1.75129
1238.2	9.06286
1238.48	-0.422073
1238.76	7.9329
1239.03	-2.58794
1239.31	-6.80548
1239.58	-0.535461
1239.86	9.92837
1240.14	2.57349
1240.41	-1.63381
1240.69	2.54633
1240.97	3.58411
1241.24	-0.617722
1241.52	0.420166
1241.79	1.44764
1242.07	9.80347
1242.35	4.5396
1242.62	-1.76113
1242.9	9.75645
1243.18	1.36842
1243.45	10.7979
1243.73	5.53947
1244	6.57238
1244.28	0.271484
1244.56	8.64046
1244.83	1.28004
1245.11	-1.88945
1245.39	13.7956
1245.66	8.5165
1245.94	9.51601
1246.21	6.32789
1246.49	-2.07689
1246.76	3.1321
1247.04	8.34735
1247.32	12.5134
1247.59	11.44
1247.87	14.5586
1248.14	11.3896
1248.42	18.6593
1248.7	14.437
1248.97	11.2749
1249.25	17.5355
1249.52	3.92456
1249.8	9.12807
1250.08	14.3339
1250.35	10.1306
1250.63	6.95407
1250.9	10.0473
1251.18	8.96122
1251.45	12.0576
1251.73	10.9756
1252.01	10.9386
1252.28	10.9008
1252.56	15.0396
1252.83	6.64825
1253.11	6.60841
1253.39	0.308624
1253.66	8.62691
1253.94	1.30082
1254.21	9.64087
1254.49	10.6792
1254.76	15.8968
1255.04	9.61768
1255.31	12.728
1255.59	20.0227
1255.87	16.8675
1256.14	15.7963
1256.42	18.9111
1256.69	12.6304
1256.97	22.0218
1257.24	24.0934
1257.52	24.0658
1257.79	30.2948
1258.07	46.9708
1258.35	39.6296
1258.62	40.6414
1258.9	28.0782
1259.17	19.6809
1259.45	30.0932
1259.72	24.8646
1260	32.1655
1260.27	38.4557
1260.55	35.271
1260.82	45.6603
1261.1	41.4194
1261.37	54.9304
1261.65	59.0592
1261.92	68.4459
1262.2	84.2178
1262.48	89.6375
1262.75	97.0454
1263.02	116.581
1263.3	140.318
1263.58	152.709
1263.85	157.09
1264.13	147.849
1264.4	129.222
1264.68	107.338
1264.95	94.6558
1265.23	78.9151
1265.5	54.8559
1265.78	59.0042
1266.05	37.0167
1266.33	35.951
1266.6	31.7596
1266.88	36.9801
1267.15	33.8464
1267.43	23.3979
1267.7	37.0015
1267.98	29.6934
1268.25	33.896
1268.53	34.9744
1268.8	27.6662
1269.08	27.6685
1269.35	15.0955
1269.63	23.4715
1269.9	21.3517
1270.18	26.549
1270.45	19.1685
1270.73	34.8342
1271	34.7892
1271.28	15.9145
1271.55	38.9132
1271.83	23.1857
1272.1	20.0375
1272.38	23.184
1272.65	20.056
1272.93	20.0781
1273.2	26.3739
1273.47	25.3382
1273.75	27.4472
1274.03	32.7024
1274.3	27.4735
1274.57	26.4274
1274.85	32.7114
1275.12	29.5456
1275.4	33.7275
1275.67	33.726
1275.95	31.6324
1276.22	28.4903
1276.5	40.0491
1276.77	28.5097
1277.05	27.4677
1277.32	27.4701
1277.6	45.3417
1277.87	41.1573
1278.14	45.3781
1278.42	50.6472
1278.69	49.6088
1278.97	58.0479
1279.24	63.3186
1279.52	68.5914
1279.79	88.5596
1280.07	92.7433
1280.34	109.541
1280.61	123.196
1280.89	153.704
1281.16	214.726
1281.44	272.66
1281.71	348.54
1281.99	494.905
1282.26	702.247
1282.53	981.279
1282.81	1295.14
1283.08	1721.22
1283.36	2174.85
1283.63	2485.09
1283.91	2550.35
1284.18	2279.17
1284.45	1684.3
1284.73	1207.53
1285	786.261
1285.28	513.33
1285.55	332.94
1285.83	242.249
1286.1	174.868
1286.37	142.274
1286.65	118.047
1286.92	88.5257
1287.2	86.4145
1287.47	77.9787
1287.75	66.3737
1288.02	52.6632
1288.29	45.2802
1288.57	52.6435
1288.84	38.9646
1289.12	38.9718
1289.39	38.9887
1289.66	36.9037
1289.94	41.1369
1290.21	39.0557
1290.49	35.9163
1290.76	35.9162
1291.03	29.5845
1291.31	27.473
1291.58	20.1
1291.86	31.6859
1292.13	25.3646
1292.4	25.3677
1292.68	24.3238
1292.95	22.2141
1293.22	17.9967
1293.5	27.4837
1293.77	16.9873
1294.05	17.0314
1294.32	30.7843
1294.59	19.2021
1294.87	22.3709
1295.14	22.3689
1295.42	10.7916
1295.69	11.891
1295.96	16.1701
1296.24	25.7533
1296.51	13.1215
1296.79	21.5942
1297.06	22.6612
1297.33	14.2024
1297.61	18.4209
1297.88	12.07
1298.15	14.1701
1298.43	4.65002
1298.7	12.062
1298.97	8.89594
1299.25	11.0027
1299.52	7.83306
1299.79	5.71806
1300.07	6.78333
1300.34	16.3112
1300.62	3.66211
1300.89	8.95536
1301.16	4.73972
1301.44	14.2509
1301.71	13.2122
1301.98	13.2406
1302.25	5.87479
1302.53	15.4022
1302.8	8.02432
1303.08	3.81187
1303.35	11.2144
1303.62	-3.56704
1303.9	4.88174
1304.17	11.2293
1304.44	8.07906
1304.72	-0.352631
1304.99	4.94202
1305.26	-2.44262
1305.54	7.06101
1305.81	10.2245
1306.08	4.94579
1306.35	1.7779
1306.63	0.724998
1306.9	6.00901
1307.18	2.86342
1307.45	4.99882
1307.72	5.0203
1308	8.20271
1308.27	5.05746
1308.54	-0.191849
1308.81	1.933
1309.09	3.01269
1309.36	0.936676
1309.63	12.5752
1309.91	-1.1084
1310.18	2.08681
1310.45	4.21725
1310.73	-8.42906
1311	9.53321
1311.27	2.17262
1311.55	-4.132
1311.82	7.50452
1312.09	-3.01985
1312.37	5.46301
1312.64	-6.11472
1312.91	3.41824
1313.18	-3.95158
1313.46	-4.99409
1313.73	8.75266
1314	-0.729797
1314.28	6.67911
1314.55	2.48313
1314.82	2.51469
1315.09	-9.06303
1315.37	-0.580582
1315.64	-1.59959
1315.91	1.60654
1316.18	6.9262
1316.46	0.613617
1316.73	1.6934
1317	1.71875
1317.28	0.689514
1317.55	-8.78562
1317.82	-1.35251
1318.09	-1.31507
1318.37	2.94582
1318.64	2.97955
1318.91	7.23798
1319.18	0.930504
1319.46	-3.26611
1319.73	-1.12484
1320	6.29869
1320.28	-0.00193787
1320.55	-8.42028
1320.82	-7.33517
1321.09	-2.03136
1321.37	1.15297
1321.64	-4.11473
1321.91	-6.21532
1322.18	5.41306
1322.46	-1.96074
1322.73	-0.881905
1323	6.5244
1323.27	5.49258
1323.55	-7.1396
1323.82	-3.93279
1324.09	5.59616
1324.36	1.41594
1324.64	-0.659142
1324.91	2.54192
1325.18	0.467484
1325.45	1.56419
1325.73	0.526848
1326	-1.57838
1326.27	0.521912
1326.54	-0.547806
1326.81	-8.94901
1327.09	-1.5516
1327.36	-10.959
1327.63	-1.39855
1327.9	2.88161
1328.18	0.841637
1328.45	4.07425
1328.72	-3.2365
1328.99	4.21223
1329.27	4.26029
1329.54	2.18095
1329.81	5.39541
1330.08	0.157883
1330.35	-1.91669
1330.63	1.2795
1330.9	0.252327
1331.17	-0.778358
1331.44	-9.19122
1331.71	2.41534
1331.99	1.37023
1332.26	-0.71949
1332.53	-2.8026
1332.8	-0.677177
1333.07	-0.659767
1333.35	7.7692
1333.62	-1.67463
1333.89	-4.80562
1334.16	10.9763
1334.43	1.54457
1334.71	-3.68064
1334.98	5.79423
1335.25	-4.67269
1335.52	0.605461
1335.79	0.636734
1336.07	10.1095
1336.34	0.702858
1336.61	-1.35945
1336.88	-10.7591
1337.15	-2.33318
1337.43	-1.24496
1337.7	-6.44487
1337.97	0.931145
1338.24	-3.23104
1338.51	-3.20003
1338.78	2.07435
1339.06	2.1096
1339.33	-2.03889
1339.6	0.101639
1339.87	-5.08239
1340.14	2.30074
1340.42	-9.1674
1340.69	-3.87932
1340.96	-6.96931
1341.23	5.64616
1341.5	3.59802
1341.77	8.8782
1342.04	-2.59819
1342.32	7.90928
1342.59	7.94239
1342.86	-1.44607
1343.13	3.81618
1343.4	-9.74099
1343.67	-0.281731
1343.95	3.95064
1344.22	-2.27337
1344.49	-0.128464
1344.76	-0.076416
1345.03	11.4724
1345.3	0.00913239
1345.58	0.0452652
1345.85	11.5698
1346.12	4.28767
1346.39	4.31404
1346.66	4.32817
1346.93	3.31284
1347.2	9.60273
1347.47	2.32974
1347.75	-1.80824
1348.02	5.52978
1348.29	8.70072
1348.56	3.53659
1348.83	8.79626
1349.1	-3.66618
1349.37	-10.9168
1349.65	6.83323
1349.92	4.79067
1350.19	1.70798
1350.46	5.91427
1350.73	8.03693
1351	5.99142
1351.27	-1.25539
1351.54	9.19065
1351.81	2.986
1352.09	8.23559
1352.36	2.05154
1352.63	4.19662
1352.9	5.31004
1353.17	9.55257
1353.44	4.41923
1353.71	9.74931
1353.98	2.58559
1354.25	7.77979
1354.53	2.51694
1354.8	10.8089
1355.07	3.60252
1355.34	1.58832
1355.61	7.85287
1355.88	1.66474
1356.15	0.708961
1356.42	10.1241
1356.69	10.1647
1356.96	16.4472
1357.24	10.2665
1357.51	13.4326
1357.78	10.3651
1358.05	17.6787
1358.32	5.26592
1358.59	13.6138
1358.86	12.621
1359.13	9.55075
1359.4	16.8554
1359.67	11.7167
1359.94	9.69167
1360.22	9.73047
1360.49	15.9848
1360.76	20.1649
1361.03	11.9203
1361.3	5.75862
1361.57	16.176
1361.84	12.0898
1362.11	16.2884
1362.38	12.196
1362.65	20.5314
1362.92	16.4415
1363.19	13.3931
1363.46	20.7073
1363.73	23.8908
1364	16.7134
1364.28	21.9647
1364.55	26.1683
1364.82	36.5813
1365.09	33.5242
1365.36	33.567
1365.63	24.2879
1365.9	27.4322
1366.17	26.437
1366.44	24.4079
1366.71	22.3784
1366.98	23.4476
1367.25	23.4773
1367.52	21.4577
1367.79	32.8786
1368.06	29.8535
1368.33	27.856
1368.6	53.767
1368.87	79.6814
1369.15	125.242
1369.41	139.795
1369.68	101.614
1369.95	63.4025
1370.23	47.9436
1370.5	34.5555
1370.77	32.5246
1371.04	27.4079
1371.31	31.5853
1371.58	27.4891
1371.85	35.7791
1372.12	28.5766
1372.39	34.7923
1372.66	30.6942
1372.93	33.8242
1373.2	32.839
1373.47	26.7045
1373.74	37.0612
1374.01	28.8698
1374.28	35.1071
1374.55	43.4056
1374.82	39.3407
1375.09	36.3052
1375.36	45.6258
1375.63	41.5731
1375.9	47.8315
1376.17	35.5299
1376.44	47.9623
1376.71	52.1163
1376.98	36.7047
1377.25	52.1743
1377.52	51.1595
1377.79	41.9761
1378.06	55.4495
1378.33	49.3831
1378.6	69.0798
1378.87	66.1254
1379.14	62.0874
1379.41	62.1465
1379.68	71.471
1379.95	55.0238
1380.22	77.733
1380.49	76.7049
1380.76	70.4781
1381.03	86.9391
1381.3	86.9458
1381.57	97.3202
1381.84	97.3418
1382.11	93.2186
1382.38	103.476
1382.65	108.604
1382.92	115.79
1383.19	125.019
1383.46	140.417
1383.73	162.983
1384	174.285
1384.27	191.744
1384.54	235.902
1384.81	262.651
1385.08	344.817
1385.34	439.368
1385.61	569.958
1385.88	836.049
1386.15	1215.17
1386.42	1860.26
1386.69	2968.92
1386.96	4366.2
1387.23	5486.82
1387.5	5353.17
1387.77	4016.28
1388.04	2512.32
1388.31	1433.67
1388.58	856.341
1388.85	555.508
1389.12	381.895
1389.39	297.022
1389.66	220.105
1389.93	198.638
1390.2	156.524
1390.46	146.158
1390.73	121.535
1391	107.237
1391.27	102.107
1391.54	93.9564
1391.81	83.7577
1392.08	76.6157
1392.35	79.7153
1392.62	72.5783
1392.89	65.4514
1393.16	67.5444
1393.43	56.3323
1393.7	53.3128
1393.97	50.2949
1394.23	48.3016
1394.5	49.3801
1394.77	54.5523
1395.04	51.5406
1395.31	48.546
1395.58	45.5571
1395.85	34.3728
1396.12	48.7714
1396.39	41.6653
1396.66	44.7894
1396.93	39.7223
1397.2	40.795
1397.46	42.8839
1397.73	43.9499
1398	37.8653
1398.27	48.1543
1398.54	45.1555
1398.81	38.0694
1399.08	34.046
1399.35	40.252
1399.62	49.5413
1399.89	32.217
1400.16	35.3585
1400.42	36.4431
1400.69	38.5657
1400.96	45.8203
1401.23	34.6303
1401.5	38.784
1401.77	37.8336
1402.04	38.9182
1402.31	31.8423
1402.58	37.0818
1402.84	34.126
1403.11	42.4386
1403.38	38.4271
1403.65	34.3966
1403.92	41.6452
1404.19	45.7905
1404.46	49.895
1404.73	39.7121
1404.99	44.8933
1405.26	51.0965
1405.53	65.4962
1405.8	65.5334
1406.07	68.6476
1406.34	68.6871
1406.61	75.9091
1406.87	99.5318
1407.14	124.199
1407.41	125.298
1407.68	158.179
1407.95	199.261
1408.22	237.272
1408.49	255.805
1408.76	292.799
1409.02	301.089
1409.29	254.006
1409.56	199.731
1409.83	157.755
1410.1	117.82
1410.37	100.441
1410.63	80.9818
1410.9	59.4702
1411.17	54.3672
1411.44	44.1515
1411.71	39.0693
1411.98	35.0168
1412.25	31.9986
1412.51	35.1435
1412.78	32.1543
1413.05	20.9882
1413.32	20.1153
1413.59	27.4136
1413.86	26.3784
1414.12	15.0459
1414.39	23.3239
1414.66	19.3318
1414.93	20.4521
1415.2	16.3979
1415.47	20.5643
1415.73	19.5953
1416	14.521
1416.27	14.5842
1416.54	20.8089
1416.81	20.8736
1417.07	22.9926
1417.34	16.8955
1417.61	6.68703
1417.88	13.9429
1418.15	11.9479
1418.42	17.1434
1418.68	23.3681
1418.95	15.2067
1419.22	12.1802
1419.49	11.2097
1419.76	16.3958
1420.02	16.4377
1420.29	12.3691
1420.56	9.3304
1420.83	17.5864
1421.1	20.7053
1421.36	16.6399
1421.63	8.47736
1421.9	18.7999
1422.17	12.7143
1422.44	9.71128
1422.7	13.8975
1422.97	7.82238
1423.24	20.2779
1423.51	14.2218
1423.77	21.2989
1424.04	8.88717
1424.31	17.1622
1424.58	20.2183
1424.85	19.2476
1425.11	17.2729
1425.38	13.2753
1425.65	18.4654
1425.92	9.27821
1426.19	19.6124
1426.45	7.34985
1426.72	17.6474
1426.99	4.35049
1427.26	8.48668
1427.52	10.5694
1427.79	13.6677
1428.06	13.6965
1428.33	11.6894
1428.59	0.473961
1428.86	14.8605
1429.13	8.77256
1429.4	1.66071
1429.67	12.9845
1429.93	10.9973
1430.2	5.93955
1430.47	8.05658
1430.74	7.0955
1431	7.16523
1431.27	15.4496
1431.54	11.4193
1431.81	2.24375
1432.07	3.32011
1432.34	6.43792
1432.61	6.47289
1432.87	7.53877
1433.14	14.7479
1433.41	3.49451
1433.68	6.5928
1433.95	0.47179
1434.21	8.69949
1434.48	9.76565
1434.75	-0.400074
1435.01	7.85702
1435.28	6.88343
1435.55	12.0555
1435.82	6.97837
1436.08	5.99895
1436.35	6.04279
1436.62	8.13523
1436.89	4.07928
1437.15	2.07206
1437.42	6.21142
1437.69	6.257
1437.95	5.27293
1438.22	3.26835
1438.49	9.46314
1438.76	6.44631
1439.02	2.40042
1439.29	7.57097
1439.56	4.54665
1439.82	4.6016
1440.09	-2.51363
1440.36	5.74812
1440.63	3.75027
1440.89	1.74852
1441.16	0.769062
1441.43	4.91917
1441.69	7.01046
1441.96	1.919
1442.23	5.0343
1442.49	3.03989
1442.76	8.21315
1443.03	3.14136
1443.3	1.12711
1443.56	16.5423
1443.83	2.22301
1444.1	3.28611
1444.36	4.35251
1444.63	9.52545
1444.9	6.51019
1445.16	1.43913
1445.43	5.60357
1445.7	9.74554
1445.97	4.65279
1446.23	5.71609
1446.5	4.72797
1446.77	4.76571
1447.03	9.93106
1447.3	5.86599
1447.57	3.8512
1447.83	4.91085
1448.1	2.89605
1448.37	1.91168
1448.63	14.2669
1448.9	6.11807
1449.17	7.18811
1449.43	1.07397
1449.7	6.23804
1449.97	6.27079
1450.23	-0.875656
1450.5	10.4324
1450.77	5.34165
1451.03	9.47703
1451.3	14.6362
1451.57	0.322571
1451.83	3.43072
1452.1	1.41543
1452.37	4.52396
1452.63	-2.61122
1452.9	5.62438
1453.17	2.59193
1453.43	1.61209
1453.7	-0.394241
1453.97	3.74354
1454.23	2.75283
1454.5	-0.28653
1454.77	-1.27341
1455.03	3.88775
1455.3	4.94817
1455.56	7.03086
1455.83	-0.1035
1456.1	-4.15686
1456.36	1.00903
1456.63	-9.20398
1456.9	0.0526237
1457.16	-0.944553
1457.43	2.15712
1457.7	2.1893
1457.96	1.19725
1458.23	2.25512
1458.49	-2.83098
1458.76	2.3276
1459.03	-2.75655
1459.29	-2.71898
1459.56	-4.73157
1459.82	4.52552
1460.09	-3.63848
1460.36	7.66239
1460.62	2.57038
1460.89	1.57596
1461.16	0.58004
1461.42	-1.44103
1461.69	-1.41372
1461.95	2.7081
1462.22	2.73255
1462.49	3.77955
1462.75	-2.33813
1463.02	-3.33855
1463.28	-1.27093
1463.55	-5.34056
1463.82	-6.34008
1464.08	-0.175064
1464.35	-1.14994
1464.61	-0.0720482
1464.88	1.00131
1465.15	-3.03878
1465.41	7.18902
1465.68	-0.0334702
1465.94	-0.0431671
1466.21	-3.07845
1466.48	-2.01221
1466.74	5.15902
1467.01	-1.97643
1467.27	1.10804
1467.54	-2.93762
1467.8	-1.89025
1468.07	0.176758
1468.34	4.28474
1468.6	-3.8469
1468.87	2.30184
1469.13	-1.75164
1469.4	0.312641
1469.67	6.45425
1469.93	1.37466
1470.2	-2.68587
1470.46	4.46796
1470.73	0.413063
1470.99	-3.63998
1471.26	1.479
1471.53	0.481415
1471.79	1.51824
1472.06	-3.55275
1472.32	2.58134
1472.59	0.570354
1472.85	1.61457
1473.12	4.69487
1473.39	4.71786
1473.65	-1.37101
1473.92	-2.36924
1474.18	-2.34828
1474.45	5.81602
1474.71	-1.28137
1474.98	1.80235
1475.24	-0.203861
1475.51	-6.28432
1475.78	3.91807
1476.04	1.90343
1476.31	-0.113098
1476.57	2.95987
1476.84	3.99789
1477.1	-2.08898
1477.37	0.97942
1477.63	4.05096
1477.9	5.09062
1478.16	-0.987965
1478.43	1.06444
1478.69	4.12876
1478.96	0.0790749
1479.22	-4.98601
1479.49	2.14343
1479.76	0.125446
1480.02	-0.877453
1480.29	2.18243
1480.55	-1.87346
1480.82	-1.86397
1481.08	-1.85034
1481.35	-2.84657
1481.61	-4.86074
1481.88	1.25301
1482.14	6.35683
1482.41	-0.715355
1482.67	1.3467
1482.94	-1.66946
1483.2	1.3979
1483.47	-0.605221
1483.73	-1.59609
1484	-0.559204
1484.26	-1.55527
1484.53	-2.56818
1484.79	-4.60175
1485.06	-5.6411
1485.32	-0.617832
1485.59	4.43739
1485.85	1.38472
1486.12	0.506489
1486.38	-1.48652
1486.65	-2.46273
1486.91	-3.50404
1487.18	1.60456
1487.44	3.65841
1487.71	0.623161
1487.97	-0.381844
1488.24	-1.38216
1488.5	-8.45883
1488.77	4.71187
1489.03	0.669342
1489.3	-4.38086
1489.56	-5.37913
1489.83	3.74109
1490.09	0.72065
1490.36	1.74995
1490.62	-5.3145
1490.89	1.77863
1491.15	1.78633
1491.42	1.79403
1491.68	-3.24861
1491.95	0.810577
1492.21	3.86046
1492.48	0.8465
1492.74	2.88371
1493	2.89758
1493.27	-0.120407
1493.53	-2.12598
1493.8	-10.1998
1494.06	1.94476
1494.33	-2.08197
1494.59	-1.05218
1494.86	-7.0985
1495.12	3.02496
1495.39	2.02153
1495.65	-1.00917
1495.92	-1.01072
1496.18	2.02055
1496.45	5.05548
1496.71	-0.994225
1496.97	0.024147
1497.24	-0.977055
1497.5	-0.96302
1497.77	-3.97693
1498.03	-0.937584
1498.3	-0.924709
1498.56	-1.91956
1498.82	0.113705
1499.09	2.14753
1499.35	1.15394
1499.62	4.19868
1499.88	4.21647
1500.15	-2.83277
1500.41	-0.798904
1500.68	6.28077
1500.94	0.234486
1501.2	6.30275
1501.47	1.26254
1501.73	4.29329
1502	-1.75254
1502.26	3.30399
1502.52	1.29584
1502.79	-1.7238
1503.05	1.30477
1503.32	-1.71886
1503.58	-0.704086
1503.85	-0.701027
1504.11	-1.69813
1504.37	-4.70771
1504.64	-3.6862
1504.9	-3.67493
1505.17	4.40127
1505.43	-5.67632
1505.7	-3.65566
1505.96	0.374104
1506.22	2.38274
1506.49	-3.65505
1506.75	-0.623894
1507.02	3.4181
1507.28	-6.64086
1507.54	1.43184
1507.81	1.44377
1508.07	-1.57008
1508.34	-5.59423
1508.6	-0.549191
1508.86	2.48381
1509.13	-1.53578
1509.39	-1.52601
1509.66	-1.5177
1509.92	2.52153
1510.18	-5.52631
1510.45	4.56315
1510.71	-2.49149
1510.98	-3.49911
1511.24	2.54231
1511.5	-0.484039
1511.77	-3.5142
1512.03	1.50101
1512.29	0.478172
1512.56	0.462624
1512.82	1.45497
1513.08	-4.576
1513.35	0.44223
1513.61	-0.563431
1513.88	-0.560024
1514.14	-5.56235
1514.4	-0.517147
1514.67	-0.505726
1514.93	1.50468
1515.2	-2.51641
1515.46	2.49804
1515.72	0.484669
1515.99	-5.54358
1516.25	-1.53726
1516.51	-8.56079
1516.78	2.47223
1517.04	-1.53657
1517.3	4.48222
1517.57	1.47879
1517.83	-1.52262
1518.09	-3.51916
1518.36	3.51448
1518.62	-5.504
1518.88	0.522427
1519.15	-7.49424
1519.41	1.54285
1519.67	2.55493
1519.94	5.57221
1520.2	3.56926
1520.47	2.56625
1520.73	3.57056
1520.99	-4.44748
1521.26	1.58087
1521.52	-3.42734
1521.78	-0.411304
1522.05	-2.41575
1522.31	4.60733
1522.57	-0.410252
