#Acq. time (s)=	30
#Accumulations=	2
#Range (cm-¹)=	1200...2365
#Windows=	3
#Auto scanning=	Off
#Autofocus=	Off
#Macrospot=	Off
#AutoExposure=	Off
#Spike filter=	Multiple accum.
#Delay time (s)=	2
#Binning=	1
#Readout mode=	Signal
#DeNoise=	Off
#ICS correction=	On
#Dark correction=	Off
#Inst. Process=	Off
#Detector Gain=	Best Dynamic
#Detector ADC=	50 kHz HS
#Detector temperature (°C)=	-60.09
#Instrument=	LabRAM HR Evol
#Detector=	SIN-EM FIVIS
#Objective=	x50_VIS_LWD
#Grating=	1800 (450-850nm)
#ND Filter=	100%
#Laser=	532nm_Edge
#Hole=	100.021
#Temperature=	0
#Range=	Visible
#StageXY=	75x50mm Scan+
#StageZ=	Z motor
#X (µm)=	0
#Y (µm)=	0
#Z (µm)=	-10.1
#Full time(mm:ss)=	3:23
#Project=	21_11_26
#Sample=	BU19(2)w
#Site=	
#Title=	BU19(2)w-A-FF2b-FI03-V_1800 (450-850nm)_532nm_Edge_100%_x50_VIS_LWD_H100um_30sX2
#Remark=	
#Date=	26.11.2021 14:57
#Acquired=	26.11.2021 14:57:04
#Base:Fit=	16.12.2021 16:00:56
#Base:Fit=	16.12.2021 16:09:50
#Base:Sub=	16.12.2021 16:09:51
1202.72	5.92043
1203	8.42207
1203.28	3.27827
1203.56	10.9705
1203.84	13.2561
1204.11	-0.566437
1204.39	1.75291
1204.67	3.03291
1204.95	1.09203
1205.23	6.64676
1205.5	5.73347
1205.78	10.1854
1206.06	4.96445
1206.34	2.96445
1206.61	13.8362
1206.89	1.11095
1207.17	5.54158
1207.45	8.90193
1207.73	2.63306
1208	3.86084
1208.28	6.16368
1208.56	5.24956
1208.84	-1.02354
1209.11	-3.01421
1209.39	-2.86467
1209.67	1.56973
1209.95	2.80116
1210.23	-2.38789
1210.5	2.03345
1210.78	3.22742
1211.06	1.21643
1211.34	-0.788277
1211.61	3.60664
1211.89	-0.532318
1212.17	-3.61172
1212.45	-0.29258
1212.72	0.900398
1213	4.22057
1213.28	0.0806122
1213.56	6.59846
1213.83	-1.78799
1214.11	11.1115
1214.39	4.86886
1214.67	-3.50687
1214.94	-3.36906
1215.22	3.15357
1215.5	-4.16801
1215.78	1.28342
1216.05	-11.3658
1216.33	2.58102
1216.61	2.68022
1216.89	7.02533
1217.16	0.739021
1217.44	0.838699
1217.72	-5.43446
1218	-6.39615
1218.27	5.38647
1218.55	0.178879
1218.83	5.58626
1219.1	3.57014
1219.38	7.92356
1219.66	0.601929
1219.94	0.704308
1220.21	-1.31995
1220.49	-0.152115
1220.77	-1.10408
1221.04	2.18066
1221.32	0.157707
1221.6	-7.17337
1221.88	-8.14235
1222.15	-3.82059
1222.43	-4.80708
1222.71	-4.73975
1222.98	10.1406
1223.26	-10.96
1223.54	-0.319046
1223.81	-0.254944
1224.09	-4.4133
1224.37	-0.120293
1224.65	4.1778
1224.92	-3.1366
1225.2	5.38856
1225.48	-5.08047
1225.76	4.51745
1226.03	4.61278
1226.31	-5.85047
1226.59	3.73348
1226.86	8.0349
1227.14	0.712791
1227.42	-0.273674
1227.69	-2.34094
1227.97	-0.222649
1228.25	-1.2418
1228.52	4.05713
1228.8	-1.19843
1229.08	0.923668
1229.35	2.04359
1229.63	0.199539
1229.91	-1.68036
1230.18	6.76078
1230.46	-7.99421
1230.74	0.478973
1231.01	2.66366
1231.29	3.74047
1231.57	-0.545876
1231.84	3.73815
1232.12	0.650696
1232.4	2.81539
1232.67	0.769821
1232.95	-8.62363
1233.23	1.94167
1233.5	-2.20505
1233.78	-2.14519
1234.06	3.17209
1234.33	5.34031
1234.61	-4.0488
1234.89	-3.9801
1235.16	0.293289
1235.44	1.40701
1235.71	-4.83697
1235.99	-2.67025
1236.27	-1.55807
1236.54	5.8549
1236.82	-0.408928
1237.1	3.83711
1237.37	5.97448
1237.65	3.89859
1237.93	6.02253
1238.2	8.14445
1238.48	7.11565
1238.76	-0.207016
1239.03	10.3084
1239.31	8.24467
1239.58	-0.106445
1239.86	9.36721
1240.14	-0.0263062
1240.41	3.16117
1240.69	3.20552
1240.97	2.20347
1241.24	-0.893974
1241.52	3.34452
1241.79	5.47659
1242.07	-0.78373
1242.35	2.39321
1242.62	1.38735
1242.9	5.62399
1243.18	1.482
1243.45	2.57912
1243.73	-2.62457
1244	7.89658
1244.28	7.93944
1244.56	5.87895
1244.83	6.95882
1245.11	4.89096
1245.39	9.10193
1245.66	-6.59805
1245.94	8.07636
1246.21	9.13131
1246.49	9.15379
1246.76	11.2743
1247.04	7.12069
1247.32	10.2918
1247.59	5.08387
1247.87	7.20695
1248.14	6.18326
1248.42	19.7848
1248.7	4.10923
1248.97	3.08975
1249.25	3.12385
1249.52	9.43423
1249.8	2.13631
1250.08	8.43764
1250.35	8.46664
1250.63	8.47781
1250.9	4.3029
1251.18	10.5843
1251.45	6.41509
1251.73	-0.885513
1252.01	12.7083
1252.28	13.7631
1252.56	14.817
1252.83	7.51794
1253.11	9.61372
1253.39	9.62283
1253.66	15.9
1253.94	10.7064
1254.21	8.6554
1254.49	12.8689
1254.76	13.9538
1255.04	11.895
1255.31	15.0498
1255.59	14.0342
1255.87	8.83454
1256.14	10.9406
1256.42	9.92105
1256.69	15.17
1256.97	28.7816
1257.24	13.1386
1257.52	21.5103
1257.79	23.6059
1258.07	21.5288
1258.35	15.2763
1258.62	14.2443
1258.9	22.6055
1259.17	20.5151
1259.45	30.9685
1259.72	15.3413
1260	29.9874
1260.27	27.9577
1260.55	38.3917
1260.82	41.5148
1261.1	40.4486
1261.37	52.958
1261.65	50.8691
1261.92	72.8105
1262.2	71.9096
1262.48	75.2478
1262.75	80.5861
1263.02	83.4902
1263.3	76.0198
1263.58	79.0974
1263.85	65.6896
1264.13	61.6302
1264.4	47.1314
1264.68	49.2973
1264.95	41.9201
1265.23	39.8175
1265.5	38.7871
1265.78	30.4319
1266.05	28.3388
1266.33	33.5772
1266.6	23.1496
1266.88	17.9509
1267.15	24.2531
1267.43	22.1979
1267.7	23.2821
1267.98	25.4152
1268.25	22.3207
1268.53	20.2812
1268.8	23.4693
1269.08	20.3585
1269.35	22.4818
1269.63	21.459
1269.9	24.6101
1270.18	19.3651
1270.45	28.776
1270.73	7.82897
1271	18.2905
1271.28	20.3816
1271.55	20.3885
1271.83	23.5284
1272.1	22.5018
1272.38	23.5825
1272.65	23.6213
1272.93	19.4801
1273.2	13.2301
1273.47	19.5516
1273.75	26.9251
1274.03	22.7691
1274.3	21.7571
1274.57	20.7357
1274.85	22.8503
1275.12	24.9567
1275.4	27.0674
1275.67	20.7961
1275.95	25.0201
1276.22	40.7898
1276.5	30.332
1276.77	18.8144
1277.05	38.7944
1277.32	27.2697
1277.6	33.6084
1277.87	29.4428
1278.14	37.8863
1278.42	48.4317
1278.69	49.5172
1278.97	62.1834
1279.24	59.0615
1279.52	61.199
1279.79	92.7627
1280.07	106.436
1280.34	136.929
1280.61	180.053
1280.89	224.26
1281.16	293.725
1281.44	429.556
1281.71	620.223
1281.99	780.329
1282.26	1044.53
1282.53	1227.82
1282.81	1350.1
1283.08	1381.46
1283.36	1290.28
1283.63	1086.22
1283.91	844.123
1284.18	598.227
1284.45	413.554
1284.73	294.46
1285	212.348
1285.28	149.134
1285.55	124.818
1285.83	104.761
1286.1	83.7206
1286.37	65.8645
1286.65	59.5584
1286.92	54.2837
1287.2	49.0314
1287.47	41.6682
1287.75	43.7713
1288.02	36.3981
1288.29	37.4532
1288.57	26.9426
1288.84	33.2736
1289.12	39.6098
1289.39	29.114
1289.66	22.8289
1289.94	20.754
1290.21	27.1064
1290.49	21.8704
1290.76	21.8847
1291.03	21.8896
1291.31	7.1541
1291.58	28.2323
1291.86	20.8738
1292.13	21.9387
1292.4	14.5824
1292.68	20.9226
1292.95	6.18807
1293.22	19.8882
1293.5	15.6956
1293.77	18.8991
1294.05	7.3572
1294.32	22.1666
1294.59	12.7024
1294.87	16.9369
1295.14	16.9471
1295.42	13.8147
1295.69	6.47988
1295.96	12.8709
1296.24	19.2838
1296.51	12.9954
1296.79	7.73582
1297.06	14.0968
1297.33	13.0481
1297.61	4.59754
1297.88	4.60007
1298.15	11.995
1298.43	10.9355
1298.7	18.3553
1298.97	7.80577
1299.25	12.0347
1299.52	5.70741
1299.79	9.93594
1300.07	13.12
1300.34	12.0967
1300.62	4.73246
1300.89	2.64121
1301.16	4.76839
1301.44	11.1193
1301.71	13.2539
1301.98	12.2305
1302.25	6.98105
1302.53	4.89423
1302.8	19.7043
1303.08	9.15967
1303.35	-0.331932
1303.62	2.84891
1303.9	2.85634
1304.17	2.87385
1304.44	8.17543
1304.72	2.91615
1304.99	8.21532
1305.26	5.05937
1305.54	5.06735
1305.81	5.07193
1306.08	9.29738
1306.35	4.02531
1306.63	4.03263
1306.9	2.99306
1307.18	7.23287
1307.45	-3.286
1307.72	5.1755
1308	0.977615
1308.27	-1.11035
1308.54	6.29893
1308.81	3.15268
1309.09	0.0145721
1309.36	2.15768
1309.63	-4.14049
1309.91	-0.942841
1310.18	5.41858
1310.45	3.32913
1310.73	-2.98371
1311	-0.849586
1311.27	0.232056
1311.55	3.42558
1311.82	9.78513
1312.09	-0.73983
1312.37	-7.03844
1312.64	5.66473
1312.91	-0.64151
1313.18	7.82737
1313.46	-6.93983
1313.73	2.58403
1314	0.491684
1314.28	-1.59918
1314.55	-4.74068
1314.82	4.78875
1315.09	3.76559
1315.37	0.632469
1315.64	7.00214
1315.91	-3.52329
1316.18	4.96082
1316.46	-0.296982
1316.73	-0.274651
1317	3.97336
1317.28	0.829842
1317.55	1.91276
1317.82	6.17422
1318.09	0.926712
1318.37	7.29671
1318.64	-4.29382
1318.91	1.01737
1319.18	-4.23711
1319.46	2.12767
1319.73	-1.01639
1320	-3.10346
1320.28	2.21131
1320.55	1.18401
1320.82	-8.29882
1321.09	-1.94104
1321.37	3.35371
1321.64	4.41882
1321.91	-4.0174
1322.18	-2.94395
1322.46	-0.822525
1322.73	0.252892
1323	-0.781319
1323.27	-10.2512
1323.55	-0.743633
1323.82	1.4026
1324.09	4.59899
1324.36	-3.80505
1324.64	6.76779
1324.91	-5.85394
1325.18	2.61041
1325.45	1.59128
1325.73	-1.55756
1326	-1.55505
1326.27	0.545998
1326.54	1.5834
1326.81	1.59541
1327.09	1.62199
1327.36	0.623573
1327.63	-5.61976
1327.9	-7.67341
1328.18	2.91703
1328.45	-0.187092
1328.72	-1.18405
1328.99	0.978893
1329.27	7.34827
1329.54	-5.28712
1329.81	1.08253
1330.08	1.11283
1330.35	3.25085
1330.63	-1.99853
1330.9	2.24197
1331.17	0.151093
1331.44	3.32775
1331.71	1.22837
1331.99	-4.03214
1332.26	-0.860298
1332.53	1.26142
1332.8	-7.14172
1333.07	0.236214
1333.35	-1.85476
1333.62	-0.789112
1333.89	3.42996
1334.16	-7.0596
1334.43	-2.83922
1334.71	6.62999
1334.98	7.69802
1335.25	3.5206
1335.52	-3.80182
1335.79	-1.67907
1336.07	4.63955
1336.34	3.61576
1336.61	-0.552452
1336.88	1.57231
1337.15	-2.5921
1337.43	-2.5613
1337.7	4.80735
1337.97	-0.403519
1338.24	1.71369
1338.51	0.688187
1338.78	-1.37872
1339.06	0.742748
1339.33	-2.36807
1339.6	4.99726
1339.87	5.03755
1340.14	-4.34546
1340.42	-0.11718
1340.69	2.01779
1340.96	-1.08372
1341.23	3.14237
1341.5	-2.05825
1341.77	1.11736
1342.04	2.19592
1342.32	4.31797
1342.59	1.20271
1342.86	2.27108
1343.13	3.33926
1343.4	3.36929
1343.67	3.40361
1343.95	3.44083
1344.22	0.342316
1344.49	-1.70855
1344.76	1.46881
1345.03	-1.63446
1345.3	1.53236
1345.58	3.64906
1345.85	3.66841
1346.12	3.69208
1346.39	5.79894
1346.66	0.586071
1346.93	2.69373
1347.2	-1.45805
1347.47	3.77859
1347.75	-5.58265
1348.02	4.87267
1348.29	1.77825
1348.56	1.81393
1348.83	3.93499
1349.1	6.05017
1349.37	-2.25518
1349.65	4.02452
1349.92	11.3442
1350.19	6.16667
1350.46	8.27876
1350.73	4.1445
1351	-1.03253
1351.27	3.15581
1351.54	5.26797
1351.81	4.25334
1352.09	6.37056
1352.36	-6.06591
1352.63	1.26291
1352.9	4.43978
1353.17	5.54326
1353.44	1.43426
1353.71	11.9459
1353.98	1.63205
1354.25	2.65786
1354.53	6.76568
1354.8	6.73968
1355.07	-2.56057
1355.34	10.9965
1355.61	2.705
1355.88	7.93007
1356.15	5.91942
1356.42	5.96868
1356.69	7.03722
1356.96	13.3068
1357.24	-0.157173
1357.51	-2.19583
1357.78	12.3781
1358.05	6.18195
1358.32	10.3672
1358.59	4.1719
1358.86	3.168
1359.13	7.34972
1359.4	13.6051
1359.67	13.6395
1359.94	6.41613
1360.22	9.5542
1360.49	10.6152
1360.76	6.49615
1361.03	5.49305
1361.3	4.49731
1361.57	13.8643
1361.84	3.54903
1362.11	11.877
1362.38	9.84286
1362.65	12.9874
1362.92	11.9907
1363.19	22.3879
1363.46	13.12
1363.73	29.7485
1364	16.341
1364.28	22.6119
1364.55	19.5496
1364.82	19.5906
1365.09	16.5215
1365.36	15.5188
1365.63	21.7604
1365.9	12.4723
1366.17	8.36341
1366.44	14.6024
1366.71	15.6659
1366.98	16.7251
1367.25	12.611
1367.52	22.9821
1367.79	23.021
1368.06	19.9781
1368.33	35.5359
1368.6	59.3642
1368.87	80.0943
1369.15	68.7775
1369.41	52.2923
1369.68	32.7013
1369.95	30.67
1370.23	18.3021
1370.5	19.3745
1370.77	15.2683
1371.04	16.3396
1371.31	19.4726
1371.58	20.5314
1371.85	21.5851
1372.12	16.4413
1372.39	24.7137
1372.66	19.5763
1372.93	28.8829
1373.2	16.546
1373.47	23.799
1373.74	21.7753
1374.01	30.0589
1374.28	22.8869
1374.55	23.9597
1374.82	26.063
1375.09	16.8332
1375.36	22.0223
1375.63	31.3442
1375.9	25.2224
1376.17	23.2083
1376.44	35.6243
1376.71	30.4991
1376.98	32.5856
1377.25	28.4865
1377.52	33.6444
1377.79	32.6753
1378.06	27.6
1378.33	29.7417
1378.6	42.1966
1378.87	30.9601
1379.14	37.2097
1379.41	49.6269
1379.68	33.1681
1379.95	47.634
1380.22	45.5999
1380.49	48.6952
1380.76	47.6301
1381.03	49.6886
1381.3	54.8399
1381.57	53.8784
1381.84	58.0121
1382.11	62.1193
1382.38	69.3007
1382.65	88.808
1382.92	80.5922
1383.19	95.9808
1383.46	112.401
1383.73	141.116
1384	148.308
1384.27	181.135
1384.54	228.353
1384.81	307.379
1385.08	402.868
1385.34	561.018
1385.61	803.493
1385.88	1221.55
1386.15	1822.51
1386.42	2536.46
1386.69	3149.17
1386.96	3221.43
1387.23	2598.99
1387.5	1764.58
1387.77	1090.18
1388.04	661.857
1388.31	434.6
1388.58	318.574
1388.85	234.142
1389.12	188.37
1389.39	150.583
1389.66	122.926
1389.93	106.566
1390.2	87.0562
1390.46	83.9176
1390.73	81.8658
1391	75.7582
1391.27	68.5799
1391.54	59.3946
1391.81	56.3593
1392.08	46.138
1392.35	48.2096
1392.62	49.2601
1392.89	46.2203
1393.16	38.0659
1393.43	37.0807
1393.7	34.0502
1393.97	34.0914
1394.23	34.1332
1394.5	35.1996
1394.77	42.406
1395.04	30.1728
1395.31	31.2544
1395.58	24.1536
1395.85	30.3534
1396.12	30.4067
1396.39	40.6894
1396.66	34.5892
1396.93	25.4172
1397.2	25.4563
1397.46	26.5134
1397.73	28.5936
1398	28.6349
1398.27	20.5004
1398.54	21.5773
1398.81	30.8423
1399.08	23.7354
1399.35	25.8347
1399.62	26.9205
1399.89	31.0716
1400.16	23.964
1400.42	22.9887
1400.69	30.2136
1400.96	26.1878
1401.23	28.2942
1401.5	29.3637
1401.77	30.4466
1402.04	20.2532
1402.31	27.498
1402.58	30.6673
1402.84	25.6382
1403.11	29.826
1403.38	29.901
1403.65	36.1218
1403.92	34.1181
1404.19	37.228
1404.46	36.2006
1404.73	40.3663
1404.99	45.5361
1405.26	32.2375
1405.53	48.6812
1405.8	52.8128
1406.07	63.0956
1406.34	61.0752
1406.61	77.512
1406.87	84.7244
1407.14	98.104
1407.41	102.264
1407.68	128.979
1407.95	136.215
1408.22	156.78
1408.49	155.815
1408.76	143.571
1409.02	123.123
1409.29	110.881
1409.56	92.48
1409.83	70.9987
1410.1	62.8467
1410.37	52.6368
1410.63	40.3566
1410.9	31.1512
1411.17	34.2486
1411.44	30.1771
1411.71	29.1862
1411.98	18.978
1412.25	22.0965
1412.51	23.1786
1412.78	15.048
1413.05	16.1618
1413.32	18.3425
1413.59	22.5416
1413.86	15.3461
1414.12	14.2814
1414.39	17.4192
1414.66	16.4855
1414.93	11.43
1415.2	15.5795
1415.47	11.5219
1415.73	8.48909
1416	5.45728
1416.27	12.6963
1416.54	10.6947
1416.81	6.63942
1417.07	9.77306
1417.34	13.9358
1417.61	7.82544
1417.88	14.0431
1418.15	12.0378
1418.42	6.94759
1418.68	6.996
1418.95	7.04502
1419.22	7.09169
1419.49	3.02812
1419.76	4.09591
1420.02	4.13197
1420.29	6.2214
1420.56	4.20292
1420.83	9.37178
1421.1	13.5115
1421.36	13.5454
1421.63	7.42736
1421.9	-2.78826
1422.17	2.40284
1422.44	7.60094
1422.7	8.6926
1422.97	11.8529
1423.24	12.9789
1423.51	6.90039
1423.77	8.8683
1424.04	5.71732
1424.31	9.87874
1424.58	9.86738
1424.85	9.91249
1425.11	10.9987
1425.38	8.00829
1425.65	10.1114
1425.92	9.12231
1426.19	10.2124
1426.45	6.14944
1426.72	6.18396
1426.99	3.13786
1427.26	2.14291
1427.52	5.24666
1427.79	8.34232
1428.06	11.4399
1428.33	-0.812733
1428.59	7.41884
1428.86	9.51106
1429.13	9.55834
1429.4	4.48644
1429.67	4.53621
1429.93	0.490349
1430.2	2.59307
1430.47	3.67486
1430.74	3.72892
1431	1.73719
1431.27	6.93101
1431.54	1.86174
1431.81	0.887009
1432.07	5.03544
1432.34	1.99021
1432.61	10.2288
1432.87	2.05619
1433.14	6.18596
1433.41	0.0575562
1433.68	5.20332
1433.95	6.24945
1434.21	1.15821
1434.48	8.3632
1434.75	-2.83772
1435.01	8.48485
1435.28	1.35628
1435.55	3.4478
1435.82	-1.63527
1436.08	-0.570839
1436.35	6.64007
1436.62	3.60419
1436.89	3.64118
1437.15	-1.4443
1437.42	2.69012
1437.69	-0.342659
1437.95	1.74153
1438.22	6.9006
1438.49	0.799442
1438.76	5.96915
1439.02	7.03914
1439.29	5.03281
1439.56	0.977974
1439.82	1.0258
1440.09	10.3016
1440.36	0.105545
1440.63	0.151527
1440.89	3.27104
1441.16	-0.789936
1441.43	5.40565
1441.69	-0.711029
1441.96	3.42259
1442.23	4.48319
1442.49	1.45689
1442.76	4.57426
1443.03	5.64944
1443.3	1.58018
1443.56	2.63695
1443.83	2.66922
1444.1	0.653202
1444.36	0.690472
1444.63	2.78284
1444.9	7.96286
1445.16	1.86038
1445.43	8.07047
1445.7	5.02695
1445.97	4.03481
1446.23	3.0432
1446.5	8.20627
1446.77	5.16351
1447.03	0.0698433
1447.3	1.1298
1447.57	2.18869
1447.83	6.32167
1448.1	5.32907
1448.37	4.34122
1448.63	4.38767
1448.9	0.333858
1449.17	3.45102
1449.43	-1.64064
1449.7	0.444263
1449.97	0.475479
1450.23	4.60622
1450.5	3.60995
1450.77	1.59253
1451.03	6.75075
1451.3	-5.51546
1451.57	1.69141
1451.83	5.82208
1452.1	-2.34323
1452.37	1.78799
1452.63	5.92025
1452.9	1.8589
1453.17	4.97089
1453.43	1.93856
1453.7	-0.0708694
1453.97	4.06448
1454.23	8.19577
1454.5	6.17899
1454.77	0.0663605
1455.03	1.12648
1455.3	6.28387
1455.56	5.29103
1455.83	-2.87018
1456.1	-3.85273
1456.36	-0.739269
1456.63	-2.75451
1456.9	1.3761
1457.16	3.45236
1457.43	-2.668
1457.7	-0.587582
1457.96	-0.556133
1458.23	5.62246
1458.49	3.60807
1458.76	0.569965
1459.03	3.67976
1459.29	0.642448
1459.56	2.72677
1459.82	0.712181
1460.09	4.84221
1460.36	-0.250019
1460.62	-3.29312
1460.89	-1.21437
1461.16	2.91113
1461.42	-3.2066
1461.69	0.917053
1461.95	-2.12809
1462.22	-2.10231
1462.49	2.01676
1462.75	-1.02975
1463.02	3.08605
1463.28	2.08488
1463.55	3.12889
1463.82	4.17365
1464.08	3.18162
1464.35	4.25061
1464.61	1.23468
1464.88	1.28217
1465.15	1.33469
1465.41	0.30909
1465.68	0.262196
1465.94	1.27891
1466.21	-4.81715
1466.48	0.329636
1466.74	-6.78843
1467.01	-2.69226
1467.27	-2.66682
1467.54	-5.693
1467.8	-0.563885
1468.07	-5.63676
1468.34	1.53248
1468.6	-1.49818
1468.87	1.59118
1469.13	6.71863
1469.4	-0.395424
1469.67	-2.41018
1469.93	-0.348911
1470.2	-3.38712
1470.46	-0.307468
1470.73	-4.35979
1470.99	-2.29705
1471.26	-1.25188
1471.53	-0.209621
1471.79	-2.22556
1472.06	1.87139
1472.32	-2.17604
1472.59	-3.16705
1472.85	1.95172
1473.12	2.9972
1473.39	-1.05023
1473.65	1.00816
1473.92	3.06572
1474.18	-6.07098
1474.45	-2.99253
1474.71	3.14122
1474.98	-4.96881
1475.24	2.18611
1475.51	0.178703
1475.78	0.204979
1476.04	4.29951
1476.31	3.30317
1476.57	3.32607
1476.84	1.31454
1477.1	3.36927
1477.37	-5.7648
1477.63	2.39505
1477.9	4.4542
1478.16	3.46278
1478.43	-2.61676
1478.69	5.53522
1478.96	-2.57714
1479.22	-0.523926
1479.49	-2.53703
1479.76	-2.51826
1480.02	1.56244
1480.29	-2.48293
1480.55	-0.440636
1480.82	-0.426697
1481.08	4.66446
1481.35	2.65649
1481.61	-4.42678
1481.88	-3.38359
1482.14	2.73592
1482.41	4.79879
1482.67	-1.25745
1482.94	0.804207
1483.2	3.87468
1483.47	0.858662
1483.73	-4.19129
1484	-3.15124
1484.26	-2.11286
1484.53	-2.10419
1484.79	-3.11604
1485.06	0.921463
1485.32	-5.18309
1485.59	-1.13017
1485.85	1.8955
1486.12	-3.0479
1486.38	-5.04046
1486.65	-3.98967
1486.91	1.05861
1487.18	4.14289
1487.44	-6.97446
1487.71	4.18283
1487.97	0.143921
1488.24	0.161171
1488.5	1.18997
1488.77	-0.821156
1489.03	4.25246
1489.3	4.26666
1489.56	-0.774944
1489.83	1.26747
1490.09	-3.7715
1490.36	-1.72631
1490.62	3.35342
1490.89	-4.72234
1491.15	-2.68491
1491.42	1.37401
1491.68	0.38065
1491.95	0.400398
1492.21	4.46572
1492.48	0.444862
1492.74	-1.55724
1493	-0.527294
1493.27	-3.54035
1493.53	-2.50851
1493.8	5.59662
1494.06	-5.5034
1494.33	-3.46058
1494.59	1.61696
1494.86	3.66296
1495.12	0.648651
1495.39	2.68405
1495.65	-1.35023
1495.92	-5.38459
1496.18	-4.36464
1496.45	5.74557
1496.71	0.711334
1496.97	0.726067
1497.24	-2.28767
1497.5	3.78722
1497.77	3.80629
1498.03	2.81396
1498.3	-1.20469
1498.56	1.84244
1498.82	3.88089
1499.09	-0.135685
1499.35	-0.115078
1499.62	-1.10307
1499.88	-6.12841
1500.15	-1.05917
1500.41	-2.04883
1500.68	4.02681
1500.94	-2.01363
1501.2	2.04142
1501.47	1.04571
1501.73	-4.9994
1502	-0.946934
1502.26	-1.93933
1502.52	2.11325
1502.79	1.118
1503.05	-0.890579
1503.32	2.14512
1503.58	5.18314
1503.85	3.17575
1504.11	-3.86527
1504.37	-2.83634
1504.64	-2.81762
1504.9	2.24176
1505.17	3.26517
1505.43	2.26927
1505.7	-1.75297
1505.96	0.268738
1506.22	0.271244
1506.49	3.30734
1506.75	2.31496
1507.02	-1.69687
1507.28	6.38552
1507.54	-1.65786
1507.81	-5.671
1508.07	2.40617
1508.34	7.45719
1508.6	-1.59777
1508.86	-0.573811
1509.13	4.48121
1509.39	3.48969
1509.66	2.49683
1509.92	1.50432
1510.18	-1.49937
1510.45	4.56506
1510.71	1.54894
1510.98	-3.48111
1511.24	-1.46016
1511.5	4.58572
1511.77	-2.46274
1512.03	-5.48534
1512.29	6.57756
1512.56	0.539684
1512.82	-1.47167
1513.08	-3.47587
1513.35	1.55068
1513.61	-3.46252
1513.88	0.563793
1514.14	-4.43338
1514.4	-1.39295
1514.67	0.633453
1514.93	3.65592
1515.2	4.6641
1515.46	-1.35771
1515.72	1.6573
1515.99	-2.35513
1516.25	-1.34972
1516.51	-2.34729
1516.78	-0.332199
1517.04	1.68308
1517.3	4.70129
1517.57	-1.30276
1517.83	2.72112
1518.09	1.73407
1518.36	5.76558
1518.62	2.77154
1518.88	0.78091
1519.15	0.795586
1519.41	2.81757
1519.67	-3.18649
1519.94	-5.17924
1520.2	1.85493
1520.47	2.86642
1520.73	-4.14648
1520.99	2.88951
1521.26	-2.1111
1521.52	0.913864
1521.78	3.93705
1522.05	1.94009
1522.31	-4.07192
1522.57	-0.0517006
