#Acq. time (s)=	30
#Accumulations=	2
#Range (cm-¹)=	1200...2365
#Windows=	3
#Auto scanning=	Off
#Autofocus=	Off
#Macrospot=	Off
#AutoExposure=	Off
#Spike filter=	Multiple accum.
#Delay time (s)=	2
#Binning=	1
#Readout mode=	Signal
#DeNoise=	Off
#ICS correction=	On
#Dark correction=	Off
#Inst. Process=	Off
#Detector Gain=	Best Dynamic
#Detector ADC=	50 kHz HS
#Detector temperature (°C)=	-60.09
#Instrument=	LabRAM HR Evol
#Detector=	SIN-EM FIVIS
#Objective=	x100_VIS_LWD
#Grating=	1800 (450-850nm)
#ND Filter=	100%
#Laser=	532nm_Edge
#Hole=	100.021
#Temperature=	0
#Range=	Visible
#StageXY=	75x50mm Scan+
#StageZ=	Z motor
#X (µm)=	0
#Y (µm)=	0
#Z (µm)=	-56
#Full time(mm:ss)=	3:17
#Project=	21_11_26
#Sample=	BU19(2)w
#Site=	
#Title=	BU19(2)w-A-FF1-FI09-V_1800 (450-850nm)_532nm_Edge_100%_x100_VIS_LWD_H100um_30sX2
#Remark=	
#Date=	26.11.2021 16:30
#Acquired=	26.11.2021 16:30:03
#Base:Fit=	16.12.2021 16:00:56
#Base:Fit=	16.12.2021 16:08:46
#Base:Sub=	16.12.2021 16:08:47
1202.72	0.649239
1203	10.3986
1203.28	13.615
1203.56	11.3717
1203.84	10.1922
1204.11	7.95885
1204.39	5.73234
1204.67	11.0611
1204.95	9.94377
1205.23	10.9511
1205.5	6.56895
1205.78	11.8533
1206.06	4.2444
1206.34	3.07835
1206.61	1.91259
1206.89	5.03432
1207.17	11.3655
1207.45	2.70116
1207.73	2.61677
1208	10.026
1208.28	2.45106
1208.56	-0.844711
1208.84	9.76186
1209.11	10.7368
1209.39	3.15588
1209.67	6.27843
1209.95	-1.28619
1210.23	-5.64734
1210.5	-4.67134
1210.78	5.90479
1211.06	-3.81878
1211.34	7.82043
1211.61	10.9077
1211.89	6.53041
1212.17	0.014389
1212.45	3.09783
1212.72	0.857231
1213	-4.58093
1213.28	1.69884
1213.56	1.5918
1213.83	2.55366
1214.11	-2.87932
1214.39	3.41453
1214.67	2.2553
1214.94	-2.10057
1215.22	4.18768
1215.5	-2.30299
1215.78	1.85086
1216.05	3.87209
1216.33	2.68633
1216.61	0.429398
1216.89	-1.83202
1217.16	1.22446
1217.44	-1.02869
1217.72	5.2176
1218	-2.34597
1218.27	-5.65565
1218.55	-1.53337
1218.83	-3.78058
1219.1	-3.8994
1219.38	-0.832466
1219.66	-0.951447
1219.94	-0.0124207
1220.21	-0.138733
1220.49	-5.55872
1220.77	-3.55236
1221.04	2.69163
1221.32	6.80969
1221.6	2.43758
1221.88	0.186501
1222.15	-1.0123
1222.43	-2.21793
1222.71	-0.25119
1222.98	3.8266
1223.26	-1.61909
1223.54	-6.00156
1223.81	2.30511
1224.09	-2.06921
1224.37	-4.3288
1224.65	-1.30147
1224.92	-3.54992
1225.2	-1.57182
1225.48	-2.75367
1225.76	-3.92538
1226.03	0.180183
1226.31	1.12022
1226.59	2.04612
1226.86	1.91454
1227.14	-1.39307
1227.42	-2.58779
1227.69	1.46786
1227.97	-0.839806
1228.25	1.09463
1228.52	-8.54922
1228.8	-7.68841
1229.08	3.6912
1229.35	4.60683
1229.63	-1.64632
1229.91	4.71345
1230.18	2.39961
1230.46	3.25019
1230.74	-4.2803
1231.01	0.864006
1231.29	-2.46944
1231.57	-2.74361
1231.84	-4.96268
1232.12	-2.99326
1232.4	2.12717
1232.67	-2.21596
1232.95	5.00547
1233.23	-2.4845
1233.5	-1.57267
1233.78	3.54607
1234.06	4.4694
1234.33	7.49693
1234.61	-3.1334
1234.89	-9.55946
1235.16	-3.37384
1235.44	3.85893
1235.71	3.73463
1235.99	-7.95198
1236.27	1.38476
1236.54	5.4572
1236.82	0.0586166
1237.1	0.965584
1237.37	0.81646
1237.65	-3.54408
1237.93	-0.552223
1238.2	0.338112
1238.48	5.42497
1238.76	-2.08002
1239.03	-1.18307
1239.31	1.81778
1239.58	5.86907
1239.86	2.58431
1240.14	-3.84138
1240.41	3.36266
1240.69	-0.961105
1240.97	2.05521
1241.24	-1.2156
1241.52	1.80296
1241.79	4.81014
1242.07	2.56879
1242.35	-5.95364
1242.62	-0.842102
1242.9	6.36952
1243.18	7.30099
1243.45	8.23224
1243.73	4.95761
1244	4.83083
1244.28	0.515083
1244.56	2.48283
1244.83	3.39794
1245.11	8.50297
1245.39	3.11658
1245.66	5.06361
1245.94	9.0968
1246.21	15.2217
1246.49	11.9415
1246.76	11.8083
1247.04	11.6834
1247.32	10.5097
1247.59	10.377
1247.87	6.06511
1248.14	8.02431
1248.42	14.1432
1248.7	16.0925
1248.97	15.9646
1249.25	8.52661
1249.52	15.7338
1249.8	18.7428
1250.08	12.3425
1250.35	14.3142
1250.63	13.1269
1250.9	14.0273
1251.18	17.0207
1251.45	16.881
1251.73	9.43037
1252.01	24.9641
1252.28	16.4703
1252.56	5.89211
1252.83	16.1977
1253.11	20.2342
1253.39	18.01
1253.66	12.666
1253.94	20.8993
1254.21	20.801
1254.49	14.443
1254.76	14.3503
1255.04	20.5108
1255.31	18.3089
1255.59	32.8237
1255.87	22.2684
1256.14	20.0625
1256.42	29.3548
1256.69	37.6076
1256.97	50.0492
1257.24	63.5248
1257.52	71.764
1257.79	68.4991
1258.07	68.3766
1258.35	63.0356
1258.62	48.2982
1258.9	57.5723
1259.17	61.6063
1259.45	61.4966
1259.72	71.8467
1260	84.2936
1260.27	89.4824
1260.55	106.039
1260.82	118.416
1261.1	135.978
1261.37	146.254
1261.65	157.588
1261.92	199.251
1262.2	208.804
1262.48	227.914
1262.75	232.199
1263.02	232.619
1263.3	247.782
1263.58	229.803
1263.85	208.1
1264.13	191.519
1264.4	167.641
1264.68	135.247
1264.95	108.876
1265.23	101.417
1265.5	97.143
1265.78	84.4938
1266.05	80.1904
1266.33	67.5595
1266.6	64.3451
1266.88	76.8171
1267.15	60.0343
1267.43	62.0712
1267.7	62.0243
1267.98	58.8427
1268.25	67.1763
1268.53	52.5039
1268.8	45.1391
1269.08	56.6031
1269.35	52.3523
1269.63	58.5732
1269.9	60.5762
1270.18	64.6505
1270.45	61.379
1270.73	57.0771
1271	63.2411
1271.28	62.0876
1271.55	47.3473
1271.83	59.8062
1272.1	61.8323
1272.38	54.464
1272.65	55.4761
1272.93	53.3619
1273.2	53.3243
1273.47	62.7194
1273.75	66.8795
1274.03	61.6058
1274.3	68.9154
1274.57	66.7722
1274.85	76.1487
1275.12	73.9736
1275.4	77.0509
1275.67	82.2459
1275.95	81.1566
1276.22	82.1686
1276.5	90.541
1276.77	94.7072
1277.05	97.8277
1277.32	99.89
1277.6	115.63
1277.87	122.972
1278.14	120.859
1278.42	131.351
1278.69	158.667
1278.97	161.833
1279.24	187.058
1279.52	233.333
1279.79	282.697
1280.07	326.787
1280.34	436.06
1280.61	534.844
1280.89	727.313
1281.16	1021.86
1281.44	1382.98
1281.71	1948.57
1281.99	2627.74
1282.26	3394.97
1282.53	4065.82
1282.81	4472.64
1283.08	4606.57
1283.36	4161.27
1283.63	3582.49
1283.91	2809.79
1284.18	2019.47
1284.45	1454.91
1284.73	988.193
1285	744.932
1285.28	543.613
1285.55	424.248
1285.83	334.535
1286.1	267.117
1286.37	240.827
1286.65	188.128
1286.92	172.242
1287.2	158.511
1287.47	128.977
1287.75	127.853
1288.02	111.989
1288.29	104.563
1288.57	108.733
1288.84	98.1796
1289.12	85.5287
1289.39	94.9952
1289.66	90.7843
1289.94	72.8848
1290.21	76.0472
1290.49	78.1523
1290.76	77.0672
1291.03	66.4853
1291.31	61.1805
1291.58	47.4574
1291.86	53.7469
1292.13	61.0862
1292.4	55.7949
1292.68	41.0331
1292.95	51.5318
1293.22	53.6019
1293.5	48.3197
1293.77	40.969
1294.05	46.2727
1294.32	31.5499
1294.59	39.9798
1294.87	33.6326
1295.14	52.584
1295.42	45.2093
1295.69	39.9751
1295.96	32.6422
1296.24	35.8867
1296.51	43.3234
1296.79	32.7525
1297.06	17.9428
1297.33	32.7129
1297.61	33.7336
1297.88	26.2987
1298.15	22.0334
1298.43	31.4947
1298.7	29.3866
1298.97	27.2544
1299.25	34.6154
1299.52	30.3659
1299.79	22.9484
1300.07	22.9396
1300.34	30.344
1300.62	10.2897
1300.89	24.0137
1301.16	21.8916
1301.44	8.15766
1301.71	23.9972
1301.98	18.7347
1302.25	16.6382
1302.53	19.8153
1302.8	15.5926
1303.08	12.422
1303.35	15.5842
1303.62	7.12402
1303.9	17.6667
1304.17	8.16188
1304.44	19.7828
1304.72	11.3393
1304.99	13.4542
1305.26	10.2785
1305.54	16.5992
1305.81	15.5246
1306.08	12.3411
1306.35	14.432
1306.63	7.03557
1306.9	5.98075
1307.18	8.09929
1307.45	7.06411
1307.72	7.07806
1308	0.759834
1308.27	12.3732
1308.54	15.5563
1308.81	13.4536
1309.09	14.5284
1309.36	4.01123
1309.63	6.15093
1309.91	9.34753
1310.18	4.09735
1310.45	5.16723
1310.73	-2.20833
1311	3.08661
1311.27	9.44183
1311.55	2.07967
1311.82	10.5479
1312.09	3.1889
1312.37	0.0605927
1312.64	0.0968018
1312.91	3.29397
1313.18	-0.910454
1313.46	0.154144
1313.73	2.28667
1314	6.52544
1314.28	6.54371
1314.55	4.45882
1314.82	3.43628
1315.09	3.47369
1315.37	-2.82076
1315.64	-0.668831
1315.91	-3.79529
1316.18	2.58404
1316.46	7.8913
1316.73	5.8037
1317	1.60667
1317.28	-2.58808
1317.55	4.83723
1317.82	-3.56474
1318.09	-4.57814
1318.37	3.91354
1318.64	-0.273109
1318.91	6.10351
1319.18	-6.5375
1319.46	-11.7853
1319.73	-6.46935
1320	0.959846
1320.28	-1.10783
1320.55	7.38401
1320.82	-2.08965
1321.09	-2.063
1321.37	4.29319
1321.64	-0.972313
1321.91	-0.960304
1322.18	1.17572
1322.46	2.24629
1322.73	0.166954
1323	4.41613
1323.27	-1.88067
1323.55	5.52627
1323.82	-1.79737
1324.09	-1.74722
1324.36	-1.69877
1324.64	7.83539
1324.91	-5.8232
1325.18	-5.7776
1325.45	1.65849
1325.73	-0.425415
1326	-1.47175
1326.27	-1.47489
1326.54	0.615021
1326.81	-4.62203
1327.09	4.89112
1327.36	-2.39025
1327.63	5.09447
1327.9	3.07628
1328.18	-1.05108
1328.45	-5.17774
1328.72	0.184845
1328.99	-3.94958
1329.27	4.55521
1329.54	-3.84027
1329.81	-2.71896
1330.08	-1.61067
1330.35	4.76949
1330.63	2.70531
1330.9	4.85554
1331.17	-7.76096
1331.44	-5.61884
1331.71	3.8904
1331.99	6.0149
1332.26	6.04169
1332.53	3.97047
1332.8	6.10749
1333.07	7.18762
1333.35	-0.145164
1333.62	-1.16328
1333.89	4.12682
1334.16	6.26439
1334.43	-2.10036
1334.71	2.14117
1334.98	-6.21408
1335.25	7.4773
1335.52	0.179291
1335.79	-1.86947
1336.07	-4.96484
1336.34	2.43005
1336.61	-3.8075
1336.88	1.49147
1337.15	7.83971
1337.43	-1.53448
1337.7	3.76851
1337.97	3.82829
1338.24	8.06701
1338.51	3.92493
1338.78	11.3143
1339.06	0.89698
1339.33	5.14776
1339.6	7.31181
1339.87	4.24731
1340.14	8.51493
1340.42	1.26108
1340.69	6.57521
1340.96	2.46407
1341.23	4.63184
1341.5	-0.532944
1341.77	0.583702
1342.04	-3.53823
1342.32	6.99316
1342.59	7.04977
1342.86	-2.3159
1343.13	-0.168892
1343.4	6.17253
1343.67	6.24383
1343.95	-8.32224
1344.22	1.16888
1344.49	-7.11656
1344.76	2.37624
1345.03	9.76857
1345.3	0.422737
1345.58	9.89243
1345.85	-3.64292
1346.12	6.86504
1346.39	7.95901
1346.66	0.68586
1346.93	12.2193
1347.2	11.2289
1347.47	7.1095
1347.75	6.12411
1348.02	12.4457
1348.29	-1.033
1348.56	7.38222
1348.83	4.33396
1349.1	5.44703
1349.37	5.51601
1349.65	7.6671
1349.92	8.77747
1350.19	10.9293
1350.46	14.1222
1350.73	13.1501
1351	0.725769
1351.27	18.4775
1351.54	10.2271
1351.81	19.6501
1352.09	14.5317
1352.36	8.38033
1352.63	16.8007
1352.9	9.63189
1353.17	8.71117
1353.44	22.3455
1353.71	14.1967
1353.98	13.3393
1354.25	17.5028
1354.53	18.4784
1354.8	21.5795
1355.07	18.5666
1355.34	17.6288
1355.61	18.7239
1355.88	11.5278
1356.15	23.0824
1356.42	17.9896
1356.69	11.8284
1356.96	18.145
1357.24	23.4234
1357.51	18.3148
1357.78	17.3578
1358.05	19.5133
1358.32	19.5906
1358.59	13.4402
1358.86	23.8961
1359.13	26.045
1359.4	26.12
1359.67	14.7924
1359.94	25.2464
1360.22	30.4987
1360.49	15.0157
1360.76	21.3022
1361.03	32.7755
1361.3	31.8283
1361.57	24.6738
1361.84	38.2336
1362.11	27.9679
1362.38	27.0178
1362.65	45.7437
1362.92	39.6179
1363.19	47.9963
1363.46	49.1397
1363.73	55.4763
1364	52.4866
1364.28	55.7116
1364.55	60.99
1364.82	44.5083
1365.09	55.9884
1365.36	45.7097
1365.63	39.5708
1365.9	43.7836
1366.17	45.9264
1366.44	51.1725
1366.71	52.277
1366.98	47.1701
1367.25	54.4639
1367.52	60.7465
1367.79	53.6014
1368.06	74.3936
1368.33	88.9799
1368.6	162.487
1368.87	230.835
1369.15	254.736
1369.41	208.341
1369.68	156.765
1369.95	105.147
1370.23	79.386
1370.5	65.0012
1370.77	70.235
1371.04	50.6885
1371.31	60.0669
1371.58	60.1329
1371.85	55.0287
1372.12	59.2087
1372.39	65.451
1372.66	63.4434
1372.93	73.8215
1373.2	80.0863
1373.47	69.8642
1373.74	69.9511
1374.01	64.8896
1374.28	75.2877
1374.55	83.6259
1374.82	79.601
1375.09	85.8765
1375.36	83.9026
1375.63	82.9854
1375.9	85.1733
1376.17	94.5483
1376.44	83.3329
1376.71	103.999
1376.98	97.8836
1377.25	107.197
1377.52	90.7646
1377.79	101.185
1378.06	98.2505
1378.33	117.994
1378.6	118.199
1378.87	115.322
1379.14	131.959
1379.41	123.812
1379.68	136.264
1379.95	147.681
1380.22	132.285
1380.49	153.935
1380.76	166.21
1381.03	168.265
1381.3	175.481
1381.57	189.003
1381.84	204.468
1382.11	211.642
1382.38	239.346
1382.65	248.566
1382.92	297.83
1383.19	326.528
1383.46	354.223
1383.73	418.816
1384	475.233
1384.27	589.064
1384.54	735.808
1384.81	889.79
1385.08	1174.15
1385.34	1633.14
1385.61	2351.23
1385.88	3493.44
1386.15	5188.41
1386.42	7464.71
1386.69	9635.52
1386.96	10307.3
1387.23	9207.19
1387.5	6857.87
1387.77	4541.9
1388.04	2807
1388.31	1785.46
1388.58	1216.78
1388.85	865.324
1389.12	680.857
1389.39	536.675
1389.66	446.477
1389.93	392.223
1390.2	330.584
1390.46	291.402
1390.73	270.873
1391	241.236
1391.27	225.845
1391.54	201.333
1391.81	186.047
1392.08	179.952
1392.35	165.657
1392.62	162.643
1392.89	147.356
1393.16	138.223
1393.43	133.191
1393.7	132.258
1393.97	116.998
1394.23	128.35
1394.5	120.26
1394.77	106.034
1395.04	108.184
1395.31	106.267
1395.58	105.384
1395.85	108.585
1396.12	112.799
1396.39	98.5734
1396.66	93.5515
1396.93	94.6662
1397.2	99.872
1397.46	95.8576
1397.73	92.8687
1398	97.0551
1398.27	90.0034
1398.54	88.0788
1398.81	93.3228
1399.08	95.49
1399.35	89.4701
1399.62	82.4441
1399.89	89.7341
1400.16	98.0477
1400.42	93.0387
1400.69	91.1234
1400.96	92.2976
1401.23	86.2823
1401.5	87.4098
1401.77	94.7074
1402.04	90.7189
1402.31	90.8823
1402.58	92.1069
1402.84	94.365
1403.11	91.4678
1403.38	102.919
1403.65	106.134
1403.92	108.299
1404.19	110.424
1404.46	112.486
1404.73	117.752
1404.99	137.337
1405.26	135.371
1405.53	151.854
1405.8	160.126
1406.07	185.827
1406.34	212.549
1406.61	233.129
1406.87	255.762
1407.14	290.736
1407.41	320.597
1407.68	369.946
1407.95	419.292
1408.22	459.415
1408.49	467.758
1408.76	451.492
1409.02	434.206
1409.29	365.646
1409.56	291.942
1409.83	247.971
1410.1	206.038
1410.37	182.553
1410.63	142.612
1410.9	125.232
1411.17	109.905
1411.44	98.699
1411.71	93.655
1411.98	73.2508
1412.25	71.304
1412.51	76.5523
1412.78	57.2259
1413.05	58.4329
1413.32	59.7119
1413.59	56.8111
1413.86	49.6383
1414.12	50.6212
1414.39	46.6497
1414.66	49.9076
1414.93	34.665
1415.2	48.1103
1415.47	38.9792
1415.73	49.3519
1416	30.9791
1416.27	42.3868
1416.54	41.4739
1416.81	37.481
1417.07	33.4872
1417.34	28.467
1417.61	32.6911
1417.88	41.0256
1418.15	27.777
1418.42	29.9381
1418.68	34.1558
1418.95	35.292
1419.22	35.3964
1419.49	28.3079
1419.76	38.6773
1420.02	31.5702
1420.29	30.6271
1420.56	29.6862
1420.83	31.8237
1421.1	26.7734
1421.36	34.0445
1421.63	29.0068
1421.9	29.1137
1422.17	26.159
1422.44	35.5335
1422.7	32.5848
1422.97	26.5686
1423.24	28.8013
1423.51	23.8322
1423.77	35.0367
1424.04	30.8398
1424.31	31.99
1424.58	28.9296
1424.85	28.0058
1425.11	28.1307
1425.38	26.2405
1425.65	22.2484
1425.92	24.3882
1426.19	23.4903
1426.45	25.6357
1426.72	20.5916
1426.99	17.5938
1427.26	20.7476
1427.52	20.823
1427.79	23.9631
1428.06	12.7694
1428.33	16.9523
1428.59	19.093
1428.86	6.90509
1429.13	23.3903
1429.4	8.1337
1429.67	13.3599
1429.93	16.5408
1430.2	19.7271
1430.47	15.7456
1430.74	9.70714
1431	10.8497
1431.27	14.053
1431.54	14.1733
1431.81	12.2292
1432.07	19.5096
1432.34	13.4346
1432.61	9.40948
1432.87	16.6752
1433.14	5.46802
1433.41	13.7407
1433.68	12.7809
1433.95	8.75149
1434.21	12.9261
1434.48	15.061
1434.75	14.1638
1435.01	8.12399
1435.28	12.3195
1435.55	7.28951
1435.82	9.43047
1436.08	9.52092
1436.35	11.6587
1436.62	5.59926
1436.89	9.78437
1437.15	16.0164
1437.42	12.005
1437.69	3.90133
1437.95	3.98628
1438.22	12.2675
1438.49	9.29009
1438.76	6.31775
1439.02	4.36516
1439.29	6.50703
1439.56	4.55151
1439.82	14.8977
1440.09	7.82935
1440.36	5.88593
1440.63	4.95753
1440.89	5.05104
1441.16	3.09018
1441.43	12.4119
1441.69	7.36848
1441.96	6.42225
1442.23	5.48019
1442.49	4.55487
1442.76	5.67032
1443.03	11.9237
1443.3	1.74771
1443.56	10.0291
1443.83	8.05687
1444.1	1.98693
1444.36	9.24725
1444.63	7.28782
1444.9	9.44212
1445.16	9.54326
1445.43	4.5186
1445.7	0.496227
1445.97	3.65432
1446.23	8.86382
1446.5	2.79002
1446.77	5.9476
1447.03	0.899868
1447.3	0.980122
1447.57	5.16113
1447.83	7.28852
1448.1	8.39156
1448.37	-0.75193
1448.63	2.41681
1448.9	-2.61609
1449.17	5.67509
1449.43	-2.44829
1449.7	5.8352
1449.97	3.85923
1450.23	7.0082
1450.5	7.08061
1450.77	4.08212
1451.03	4.15977
1451.3	-0.887897
1451.57	7.38731
1451.83	1.31396
1452.1	3.43919
1452.37	3.51539
1452.63	4.61768
1452.9	2.6492
1453.17	1.70678
1453.43	2.8173
1453.7	0.85183
1453.97	0.931179
1454.23	3.05592
1454.5	1.08209
1454.77	-1.91327
1455.03	1.23904
1455.3	4.38951
1455.56	-5.78278
1455.83	0.443462
1456.1	1.55453
1456.36	-0.413628
1456.63	3.76278
1456.9	3.83487
1457.16	4.92695
1457.43	1.92085
1457.7	4.04234
1457.96	3.09015
1458.23	-4.00721
1458.49	3.23885
1458.76	-4.88027
1459.03	-2.75421
1459.29	-1.65259
1459.56	-6.69961
1459.82	-1.50175
1460.09	3.69305
1460.36	4.78779
1460.62	0.759678
1460.89	2.87794
1461.16	0.896877
1461.42	-4.15735
1461.69	4.1014
1461.95	2.11849
1462.22	-0.888855
1462.49	-2.87259
1462.75	1.2832
1463.02	-3.77097
1463.28	-1.66415
1463.55	4.53156
1463.82	0.501671
1464.08	0.570374
1464.35	-0.367519
1464.61	1.77
1464.88	-4.28432
1465.15	-2.14666
1465.41	-3.13458
1465.68	-1.10112
1465.94	-0.0486336
1466.21	-5.0871
1466.48	0.0977821
1466.74	-0.859272
1467.01	-5.91261
1467.27	-2.79
1467.54	-1.69828
1467.8	2.44674
1468.07	1.49049
1468.34	0.535015
1468.6	-0.419468
1468.87	-7.49456
1469.13	0.728989
1469.4	0.790127
1469.67	0.849987
1469.93	-3.17187
1470.2	-5.15543
1470.46	-5.09822
1470.73	0.0559158
1470.99	3.17168
1471.26	-3.89957
1471.53	-1.80396
1471.79	1.30714
1472.06	-3.72757
1472.32	0.405796
1472.59	-1.56951
1472.85	4.60139
1473.12	0.589573
1473.39	-3.42411
1473.65	2.73983
1473.92	-1.27676
1474.18	-3.25584
1474.45	-3.19748
1474.71	-2.11892
1474.98	-2.05432
1475.24	-4.02656
1475.51	-3.96569
1475.78	-2.889
1476.04	-2.83282
1476.31	1.29171
1476.57	-6.79311
1476.84	-1.65014
1477.1	-1.59784
1477.37	-1.54596
1477.63	-3.52493
1477.9	-3.46807
1478.16	-4.42797
1478.43	-5.39146
1478.69	-0.258072
1478.96	0.809521
1479.22	1.8765
1479.49	-2.1389
1479.76	-2.08992
1480.02	-3.05805
1480.29	-1.99467
1480.55	-1.9533
1480.82	-0.894367
1481.08	0.167641
1481.35	-5.86877
1481.61	-0.747673
1481.88	-0.689014
1482.14	5.46056
1482.41	-3.61047
1482.67	2.54231
1482.94	-3.48838
1483.2	-0.389011
1483.47	-3.37665
1483.73	4.80289
1484	-2.25228
1484.26	1.86054
1484.53	1.89544
1484.79	-2.13451
1485.06	-1.11139
1485.32	-3.1385
1485.59	2.96384
1485.85	-0.051548
1486.12	-0.917324
1486.38	-3.89508
1486.65	-0.788738
1486.91	-2.80671
1487.18	1.31622
1487.44	-5.72101
1487.71	-6.69485
1487.97	-3.61495
1488.24	4.53104
1488.5	5.58537
1488.77	-0.450096
1489.03	-4.45969
1489.3	-2.39421
1489.56	-5.38571
1489.83	-1.29381
1490.09	-1.24874
1490.36	-0.189793
1490.62	0.868603
1490.89	1.92188
1491.15	-1.0737
1491.42	0.987473
1491.68	-3.01423
1491.95	2.08533
1492.21	5.16419
1492.48	2.17884
1492.74	3.23402
1493	0.243866
1493.27	2.30948
1493.53	-2.70035
1493.8	-4.68005
1494.06	0.417183
1494.33	0.461945
1494.59	-1.51318
1494.86	-1.46613
1495.12	-3.44628
1495.39	1.64518
1495.65	0.665649
1495.92	4.73455
1496.18	1.73486
1496.45	4.79879
1496.71	-0.213039
1496.97	0.833546
1497.24	-2.158
1497.5	-0.0981674
1497.77	2.97069
1498.03	-1.02742
1498.3	-7.04282
1498.56	-0.946564
1498.82	2.1225
1499.09	2.16423
1499.35	-0.821796
1499.62	-1.78876
1499.88	-2.75551
1500.15	0.315746
1500.41	-1.66275
1500.68	3.4239
1500.94	2.45174
1501.2	2.48882
1501.47	2.52277
1501.73	-2.49318
1502	1.57916
1502.26	-1.41168
1502.52	-0.366753
1502.79	5.72095
1503.05	0.704693
1503.32	-2.29198
1503.58	2.78286
1503.85	0.795059
1504.11	3.85611
1504.37	-1.14573
1504.64	1.91719
1504.9	-2.08088
1505.17	2.99498
1505.43	2.01764
1505.7	-1.98609
1505.96	-1.96173
1506.22	-4.96262
1506.49	3.12916
1506.75	1.14728
1507.02	4.20544
1507.28	-0.792927
1507.54	3.27279
1507.81	0.284962
1508.07	-1.69753
1508.34	-3.68249
1508.6	2.39389
1508.86	7.46529
1509.13	0.445709
1509.39	1.48615
1509.66	-4.52824
1509.92	-0.466026
1510.18	-1.43826
1510.45	-3.42011
1510.71	-1.38023
1510.98	3.68089
1511.24	0.680305
1511.5	-2.32058
1511.77	3.73473
1512.03	2.73705
1512.29	-1.27594
1512.56	3.76096
1512.82	3.7732
1513.08	1.78306
1513.35	-2.21307
1513.61	4.83648
1513.88	2.85405
1514.14	-4.13626
1514.4	-1.08158
1514.67	3.97279
1514.93	0.982857
1515.2	6.02306
1515.46	-0.988567
1515.72	2.04078
1515.99	-0.953983
1516.25	-0.93787
1516.51	0.0843048
1516.78	1.11017
1517.04	2.13623
1517.3	-0.847942
1517.57	3.18775
1517.83	0.206356
1518.09	0.234867
1518.36	3.27596
1518.62	1.29749
1518.88	1.32551
1519.15	1.35284
1519.41	0.377747
1519.67	0.405392
1519.94	2.43836
1520.2	0.455082
1520.47	6.49501
1520.73	2.50344
1520.99	-0.480202
1521.26	5.56671
1521.52	-0.426445
1521.78	4.61514
1522.05	-0.380329
1522.31	5.65887
1522.57	-0.342178
1522.84	3.68824
1523.1	5.71218
