#Acq. time (s)=	30
#Accumulations=	2
#Range (cm-¹)=	1200...2365
#Windows=	3
#Auto scanning=	Off
#Autofocus=	Off
#Macrospot=	Off
#AutoExposure=	Off
#Spike filter=	Multiple accum.
#Delay time (s)=	2
#Binning=	1
#Readout mode=	Signal
#DeNoise=	Off
#ICS correction=	On
#Dark correction=	Off
#Inst. Process=	Off
#Detector Gain=	Best Dynamic
#Detector ADC=	50 kHz HS
#Detector temperature (°C)=	-60.09
#Instrument=	LabRAM HR Evol
#Detector=	SIN-EM FIVIS
#Objective=	x100_VIS_LWD
#Grating=	1800 (450-850nm)
#ND Filter=	100%
#Laser=	532nm_Edge
#Hole=	100.021
#Temperature=	0
#Range=	Visible
#StageXY=	75x50mm Scan+
#StageZ=	Z motor
#X (µm)=	0
#Y (µm)=	0
#Z (µm)=	-16.9
#Full time(mm:ss)=	3:18
#Project=	21_11_26
#Sample=	BU19(2)w
#Site=	
#Title=	BU19(2)w-A-FF1-FI06-V_1800 (450-850nm)_532nm_Edge_100%_x100_VIS_LWD_H100um_30sX2
#Remark=	
#Date=	26.11.2021 13:46
#Acquired=	26.11.2021 13:46:13
#Base:Fit=	16.12.2021 16:00:56
#Base:Fit=	16.12.2021 16:07:48
#Base:Sub=	16.12.2021 16:07:50
1202.72	6.9111
1203	2.2325
1203.28	-3.73155
1203.56	4.142
1203.84	3.36761
1204.11	3.71243
1204.39	2.994
1204.67	5.57283
1204.95	1.70964
1205.23	10.6883
1205.5	1.36034
1205.78	2.76891
1206.06	-3.35168
1206.34	8.76918
1206.61	3.71657
1206.89	7.24088
1207.17	4.33153
1207.45	7.85979
1207.73	0.696762
1208	-1.11107
1208.28	-0.76799
1208.56	3.84518
1208.84	0.947403
1209.11	1.26097
1209.39	3.71414
1209.67	0.837769
1209.95	-0.959106
1210.23	2.5775
1210.5	5.02246
1210.78	-4.3253
1211.06	0.217285
1211.34	4.76588
1211.61	-4.57268
1211.89	5.30609
1212.17	-4.0385
1212.45	2.61453
1212.72	-2.44505
1213	-2.18063
1213.28	3.40474
1213.56	0.481125
1213.83	-6.69231
1214.11	5.28293
1214.39	1.32794
1214.67	-7.95718
1214.94	-1.27965
1215.22	0.068222
1215.5	-3.91484
1215.78	4.87227
1216.05	0.876541
1216.33	1.10857
1216.61	-0.805557
1216.89	6.83757
1217.16	-0.404099
1217.44	-4.44157
1217.72	1.08606
1218	-15.6961
1218.27	2.57346
1218.55	-8.88921
1218.83	-0.183075
1219.1	-1.01875
1219.38	-2.91095
1219.66	4.73981
1219.94	-0.349045
1220.21	0.917221
1220.49	-0.979187
1220.77	-1.81209
1221.04	-4.77765
1221.32	-4.57053
1221.6	-7.55836
1221.88	1.11349
1222.15	6.58258
1222.43	-4.92033
1222.71	8.98788
1222.98	-1.46881
1223.26	0.780472
1223.54	-2.25848
1223.81	-0.00657654
1224.09	6.47749
1224.37	1.33607
1224.65	12.052
1224.92	-4.68106
1225.2	1.82062
1225.48	2.00142
1225.76	4.31419
1226.03	-6.0473
1226.31	13.1566
1226.59	-10.962
1226.86	5.03911
1227.14	5.18188
1227.42	3.21436
1227.69	0.13942
1227.97	-6.15999
1228.25	5.50365
1228.52	2.41876
1228.8	4.53951
1229.08	16.1404
1229.35	-1.58081
1229.63	8.40919
1229.91	6.77673
1230.18	-6.92805
1230.46	9.94508
1230.74	1.60886
1231.01	10.1944
1231.29	7.08563
1231.57	13.2298
1231.84	1.83633
1232.12	-4.33633
1232.4	-1.05556
1232.67	6.41333
1232.95	1.2861
1233.23	6.65839
1233.5	9.92113
1233.78	13.1927
1234.06	3.86909
1234.33	7.15488
1234.61	8.33958
1234.89	5.32642
1235.16	12.8237
1235.44	6.64252
1235.71	12.0246
1235.99	4.79468
1236.27	9.12134
1236.54	3.96893
1236.82	13.5177
1237.1	15.6994
1237.37	11.5637
1237.65	10.5621
1237.93	8.5063
1238.2	7.50053
1238.48	9.64149
1238.76	12.8288
1239.03	-3.90121
1239.31	4.55495
1239.58	-2.71362
1239.86	8.89198
1240.14	-0.464584
1240.41	6.95406
1240.69	3.89337
1240.97	-4.40521
1241.24	12.456
1241.52	10.4449
1241.79	3.17276
1242.07	16.8486
1242.35	7.47585
1242.62	4.40977
1242.9	14.9723
1243.18	7.7298
1243.45	17.2552
1243.73	12.0816
1244	5.86148
1244.28	11.1802
1244.56	17.5345
1244.83	1.86534
1245.11	14.493
1245.39	8.23457
1245.66	10.354
1245.94	11.409
1246.21	17.6995
1246.49	12.5011
1246.76	9.40562
1247.04	7.36864
1247.32	15.7939
1247.59	12.6944
1247.87	5.41718
1248.14	24.2896
1248.42	14.8643
1248.7	9.65404
1248.97	7.60326
1249.25	4.52167
1249.52	10.8541
1249.8	21.3483
1250.08	20.3413
1250.35	9.92731
1250.63	10.9839
1250.9	8.89525
1251.18	10.9929
1251.45	15.1825
1251.73	14.1492
1252.01	16.2495
1252.28	13.1245
1252.56	12.0878
1252.83	13.1385
1253.11	2.70221
1253.39	7.92632
1253.66	11.0746
1253.94	19.4544
1254.21	21.5976
1254.49	17.4821
1254.76	12.3243
1255.04	16.5418
1255.31	12.3923
1255.59	3.03224
1255.87	17.6776
1256.14	6.20857
1256.42	15.6375
1256.69	22.9836
1256.97	7.36234
1257.24	9.48051
1257.52	16.8053
1257.79	13.6707
1258.07	24.1195
1258.35	28.3029
1258.62	22.0429
1258.9	17.8666
1259.17	14.7158
1259.45	9.50993
1259.72	16.8496
1260	18.9753
1260.27	16.9657
1260.55	28.4252
1260.82	24.2226
1261.1	21.0463
1261.37	24.1492
1261.65	34.5653
1261.92	38.7731
1262.2	36.8522
1262.48	44.4093
1262.75	37.21
1263.02	54.688
1263.3	62.8102
1263.58	72.1104
1263.85	67.1041
1264.13	50.5545
1264.4	49.6922
1264.68	30.9626
1264.95	31.907
1265.23	32.9148
1265.5	29.783
1265.78	33.9521
1266.05	17.2061
1266.33	22.4321
1266.6	20.3559
1266.88	27.6943
1267.15	24.5906
1267.43	18.3559
1267.7	22.5812
1267.98	16.3513
1268.25	25.8195
1268.53	15.4221
1268.8	20.713
1269.08	19.6949
1269.35	19.7184
1269.63	15.5446
1269.9	16.5802
1270.18	14.448
1270.45	20.681
1270.73	10.1737
1271	18.5074
1271.28	17.4293
1271.55	22.6462
1271.83	19.4805
1272.1	29.9508
1272.38	14.2841
1272.65	23.7433
1272.93	16.4673
1273.2	20.691
1273.47	15.4861
1273.75	22.857
1274.03	19.7462
1274.3	23.9748
1274.57	16.651
1274.85	20.8455
1275.12	15.5857
1275.4	27.1153
1275.67	14.5359
1275.95	20.8465
1276.22	24.0128
1276.5	18.7935
1276.77	19.8617
1277.05	27.232
1277.32	24.094
1277.6	27.2743
1277.87	20.9992
1278.14	19.9749
1278.42	30.5066
1278.69	38.9373
1278.97	29.511
1279.24	35.8372
1279.52	32.6974
1279.79	33.7275
1280.07	33.701
1280.34	46.2886
1280.61	58.8891
1280.89	76.7718
1281.16	79.9347
1281.44	101.019
1281.71	157.914
1281.99	196.888
1282.26	272.654
1282.53	353.737
1282.81	473.802
1283.08	606.319
1283.36	738.509
1283.63	836.543
1283.91	780.478
1284.18	692.175
1284.45	518.075
1284.73	328.727
1285	223.423
1285.28	143.32
1285.55	105.253
1285.83	75.6745
1286.1	59.8706
1286.37	48.3145
1286.65	47.2443
1286.92	19.8192
1287.2	42.9648
1287.47	27.1459
1287.75	29.2114
1288.02	22.8512
1288.29	23.8707
1288.57	24.9055
1288.84	17.5275
1289.12	28.0474
1289.39	21.7409
1289.66	13.3311
1289.94	12.2903
1290.21	10.1992
1290.49	22.85
1290.76	7.03214
1291.03	18.5866
1291.31	13.2955
1291.58	19.5966
1291.86	26.9513
1292.13	6.91873
1292.4	10.0635
1292.68	17.4299
1292.95	7.92603
1293.22	15.2704
1293.5	15.2622
1293.77	7.92184
1294.05	12.1822
1294.32	14.3393
1294.59	15.3957
1294.87	6.94405
1295.14	12.1902
1295.42	9.0377
1295.69	12.2496
1295.96	13.3721
1296.24	15.578
1296.51	12.4559
1296.79	15.627
1297.06	16.6727
1297.33	16.6404
1297.61	12.371
1297.88	9.15533
1298.15	6.99365
1298.43	10.1079
1298.7	7.99789
1298.97	4.80296
1299.25	5.81978
1299.52	1.56212
1299.79	8.91351
1300.07	9.95245
1300.34	17.354
1300.62	3.62921
1300.89	5.73029
1301.16	9.93219
1301.44	13.0796
1301.71	2.51404
1301.98	5.69176
1302.25	10.9812
1302.53	8.8672
1302.8	8.8575
1303.08	7.7851
1303.35	14.0992
1303.62	8.78796
1303.9	11.9154
1304.17	14.0082
1304.44	4.49464
1304.72	13.9851
1304.99	0.242661
1305.26	3.37975
1305.54	9.67534
1305.81	4.3515
1306.08	3.25134
1306.35	7.42346
1306.63	-5.27467
1306.9	4.1924
1307.18	-3.20288
1307.45	-2.14839
1307.72	1.00769
1308	2.04828
1308.27	0.980576
1308.54	2.03104
1308.81	3.0656
1309.09	2.00705
1309.36	10.4574
1309.63	0.97139
1309.91	-0.074646
1310.18	-0.0726929
1310.45	-1.14261
1310.73	2.00359
1311	-3.28339
1311.27	-6.45399
1311.55	0.930313
1311.82	5.14824
1312.09	3.03894
1312.37	11.4991
1312.64	3.06462
1312.91	0.952957
1313.18	-7.50987
1313.46	5.12856
1313.73	-3.33124
1314	2.98083
1314.28	6.12805
1314.55	2.95247
1314.82	13.5081
1315.09	6.12498
1315.37	-1.25594
1315.64	12.4798
1315.91	6.15521
1316.18	-3.33972
1316.46	-1.24084
1316.73	2.96724
1317	8.23419
1317.28	3.9986
1317.55	-1.28906
1317.82	-1.27617
1318.09	0.84317
1318.37	7.18382
1318.64	-3.38103
1318.91	-0.214798
1319.18	-4.44629
1319.46	-4.45624
1319.73	-2.35472
1320	1.86008
1320.28	2.9205
1320.55	5.02988
1320.82	-6.60361
1321.09	-11.9091
1321.37	-0.326477
1321.64	2.79659
1321.91	-1.47452
1322.18	-3.61426
1322.46	6.89218
1322.73	-3.67941
1323	0.516281
1323.27	-0.562729
1323.55	-5.86446
1323.82	12.0723
1324.09	-6.90408
1324.36	3.63972
1324.64	-5.85739
1324.91	0.468781
1325.18	-10.082
1325.45	4.6868
1325.73	-0.623505
1326	3.5269
1326.27	6.60226
1326.54	-0.87027
1326.81	2.2439
1327.09	4.33585
1327.36	-0.87915
1327.63	6.58295
1327.9	-2.84705
1328.18	5.631
1328.45	6.7411
1328.72	-1.63902
1328.99	7.89948
1329.27	-5.80244
1329.54	3.67575
1329.81	-4.74908
1330.08	-11.0844
1330.35	0.510117
1330.63	-0.56192
1330.9	-7.96857
1331.17	2.54501
1331.44	7.77426
1331.71	6.66512
1331.99	0.283859
1332.26	2.34314
1332.53	3.35828
1332.8	-4.04825
1333.07	-3.0406
1333.35	-7.29259
1333.62	4.22964
1333.89	2.08728
1334.16	11.5047
1334.43	12.5165
1334.71	-5.36966
1334.98	1.94937
1335.25	-2.27446
1335.52	16.5904
1335.79	-6.51508
1336.07	6.05301
1336.34	10.2283
1336.61	-0.275284
1336.88	2.85617
1337.15	-0.300247
1337.43	0.740067
1337.7	3.87807
1337.97	-8.70859
1338.24	-5.59183
1338.51	-12.9497
1338.78	-4.5829
1339.06	-2.50462
1339.33	1.6754
1339.6	-2.5105
1339.87	-7.73416
1340.14	6.94067
1340.42	-3.52109
1340.69	2.77489
1340.96	0.69249
1341.23	1.74457
1341.5	-8.7261
1341.77	-7.68033
1342.04	6.97159
1342.32	2.76895
1342.59	-4.5797
1342.86	10.0423
1343.13	-6.72551
1343.4	1.63264
1343.67	5.81458
1343.95	4.77315
1344.22	-2.53949
1344.49	1.65611
1344.76	5.84935
1345.03	3.7545
1345.3	-1.4868
1345.58	5.81001
1345.85	4.7296
1346.12	8.88295
1346.39	-2.64523
1346.66	11.9124
1346.93	1.4393
1347.2	-9.02437
1347.47	2.41876
1347.75	0.305664
1348.02	-0.750748
1348.29	0.285706
1348.56	-0.756729
1348.83	6.54053
1349.1	-0.764038
1349.37	-2.86092
1349.65	6.49954
1349.92	-9.1358
1350.19	4.38972
1350.46	-4.99208
1350.73	3.32349
1351	-1.90108
1351.27	-7.12407
1351.54	-2.97124
1351.81	-1.95242
1352.09	4.29016
1352.36	-4.01677
1352.63	5.37277
1352.9	-0.822693
1353.17	1.31506
1353.44	4.47408
1353.71	10.8598
1353.98	1.6317
1354.25	3.59779
1354.53	4.43964
1354.8	-1.92532
1355.07	4.33972
1355.34	8.52388
1355.61	-3.97704
1355.88	5.36156
1356.15	3.34872
1356.42	-2.85782
1356.69	6.47855
1356.96	1.28731
1357.24	-0.785339
1357.51	4.41039
1357.78	4.40869
1358.05	12.7092
1358.32	1.28198
1358.59	6.46321
1358.86	5.41847
1359.13	1.25693
1359.4	13.6949
1359.67	2.28259
1359.94	10.5785
1360.22	1.2276
1360.49	5.35014
1360.76	-2.96068
1361.03	0.140198
1361.3	7.39876
1361.57	0.164337
1361.84	-3.96529
1362.11	2.2605
1362.38	7.44102
1362.65	6.40909
1362.92	12.6268
1363.19	7.4642
1363.46	2.31573
1363.73	2.35968
1364	9.64748
1364.28	19.0089
1364.55	9.70436
1364.82	5.5715
1365.09	-5.81618
1365.36	1.42923
1365.63	9.70103
1365.9	13.8268
1366.17	5.53462
1366.44	8.62706
1366.71	2.40742
1366.98	-2.78235
1367.25	4.42796
1367.52	5.46062
1367.79	17.8692
1368.06	14.8105
1368.33	11.7431
1368.6	20.0437
1368.87	32.4806
1369.15	46.9865
1369.41	36.6846
1369.68	25.3448
1369.95	18.1104
1370.23	8.81119
1370.5	9.85051
1370.77	3.63449
1371.04	3.63878
1371.31	9.83391
1371.58	1.5535
1371.85	7.72459
1372.12	19.0424
1372.39	-0.595261
1372.66	9.69292
1372.93	18.9565
1373.2	21.0149
1373.47	21.0173
1373.74	9.68474
1374.01	22.0588
1374.28	17.9476
1374.55	4.56639
1374.82	13.8533
1375.09	20.0465
1375.36	8.72037
1375.63	9.78038
1375.9	7.76268
1376.17	7.78357
1376.44	17.0885
1376.71	12.9537
1376.98	8.82262
1377.25	20.1221
1377.52	19.0528
1377.79	12.9226
1378.06	8.86847
1378.33	14.1003
1378.6	17.291
1378.87	20.4936
1379.14	17.4522
1379.41	22.6268
1379.68	23.662
1379.95	14.3882
1380.22	24.6872
1380.49	19.4931
1380.76	15.2758
1381.03	22.4328
1381.3	24.4558
1381.57	27.5939
1381.84	17.2944
1382.11	24.4435
1382.38	35.6898
1382.65	39.7512
1382.92	41.7663
1383.19	37.6197
1383.46	39.6488
1383.73	50.9046
1384	52.9484
1384.27	72.4271
1384.54	80.6628
1384.81	108.392
1385.08	115.642
1385.34	156.771
1385.61	221.563
1385.88	290.46
1386.15	449.72
1386.42	717.833
1386.69	1136.05
1386.96	1587.12
1387.23	1880.88
1387.5	1575.52
1387.77	1046.76
1388.04	611.195
1388.31	365.502
1388.58	226.957
1388.85	145.561
1389.12	111.045
1389.39	96.8537
1389.66	74.3104
1389.93	56.9054
1390.2	41.4697
1390.46	51.6167
1390.73	44.3983
1391	30.0645
1391.27	21.8251
1391.54	36.1872
1391.81	25.9516
1392.08	21.8444
1392.35	17.7342
1392.62	25.9203
1392.89	19.7776
1393.16	26.9504
1393.43	23.8888
1393.7	22.8772
1393.97	10.6095
1394.23	5.50868
1394.5	17.8064
1394.77	22.9411
1395.04	18.8701
1395.31	15.845
1395.58	22.0394
1395.85	15.9447
1396.12	12.9093
1396.39	14.9802
1396.66	9.87805
1396.93	18.0766
1397.2	9.89896
1397.46	9.8999
1397.73	7.85565
1398	19.1215
1398.27	9.94283
1398.54	0.775131
1398.81	22.3028
1399.08	15.1806
1399.35	6.00882
1399.62	16.2944
1399.89	12.2456
1400.16	9.2177
1400.42	7.19785
1400.69	8.26981
1400.96	18.5737
1401.23	15.5484
1401.5	15.5712
1401.77	22.7869
1402.04	9.50046
1402.31	3.43105
1402.58	11.7383
1402.84	5.70222
1403.11	15.0282
1403.38	13.0516
1403.65	12.0762
1403.92	14.1596
1404.19	14.1577
1404.46	21.2838
1404.73	16.2055
1404.99	13.1429
1405.26	17.2574
1405.53	13.1568
1405.8	29.5652
1406.07	17.2617
1406.34	32.6427
1406.61	39.8289
1406.87	32.6692
1407.14	37.8306
1407.41	50.1724
1407.68	48.1665
1407.95	74.8619
1408.22	66.7006
1408.49	96.4759
1408.76	94.4675
1409.02	86.3092
1409.29	72
1409.56	52.5579
1409.83	41.3181
1410.1	47.5112
1410.37	19.8432
1410.63	30.0977
1410.9	18.8024
1411.17	22.8838
1411.44	4.42947
1411.71	12.6312
1411.98	1.37079
1412.25	9.59018
1412.51	5.54015
1412.78	10.7331
1413.05	9.82599
1413.32	4.89175
1413.59	13.2238
1413.86	15.1928
1414.12	3.74741
1414.39	8.93358
1414.66	2.8998
1414.93	1.96463
1415.2	-5.20241
1415.47	0.990189
1415.73	10.259
1416	0.024231
1416.27	-3.01701
1416.54	13.4531
1416.81	1.17165
1417.07	1.21358
1417.34	-4.90588
1417.61	9.52031
1417.88	5.45369
1418.15	16.7924
1418.42	2.43727
1418.68	-3.69507
1418.95	9.69868
1419.22	6.64511
1419.49	2.56479
1419.76	11.8264
1420.02	-5.63912
1420.29	-0.500931
1420.56	0.529099
1420.83	4.63675
1421.1	6.68784
1421.36	12.8481
1421.63	3.62541
1421.9	2.63414
1422.17	10.9109
1422.44	-4.41927
1422.7	3.87019
1422.97	-5.28082
1423.24	8.23001
1423.51	14.5598
1423.77	9.10347
1424.04	9.86026
1424.31	7.8745
1424.58	7.76656
1424.85	-0.401794
1425.11	3.76204
1425.38	3.88307
1425.65	4.95288
1425.92	-0.167374
1426.19	-5.2248
1426.45	2.9991
1426.72	13.258
1426.99	6.06929
1427.26	14.2587
1427.52	-5.22933
1427.79	1.91617
1428.06	1.89838
1428.33	-5.26448
1428.59	13.183
1428.86	7.06776
1429.13	5.05409
1429.4	-3.10095
1429.67	2.0607
1429.93	11.3262
1430.2	11.3826
1430.47	-5.97562
1430.74	6.37737
1431	-2.78329
1431.27	8.58289
1431.54	1.47316
1431.81	-0.531174
1432.07	4.62642
1432.34	-3.58272
1432.61	3.59392
1432.87	-1.53047
1433.14	6.65929
1433.41	1.50697
1433.68	-8.77154
1433.95	5.5453
1434.21	-0.607819
1434.48	2.47557
1434.75	-0.510864
1435.01	5.68916
1435.28	2.64534
1435.55	-5.52724
1435.82	8.84019
1436.08	-0.363937
1436.35	3.75058
1436.62	6.8391
1436.89	4.80162
1437.15	3.78806
1437.42	-3.36964
1437.69	-6.42205
1437.95	7.9261
1438.22	-3.32248
1438.49	2.85278
1438.76	9.04288
1439.02	-3.21387
1439.29	5.00949
1439.56	5.0401
1439.82	5.08455
1440.09	8.21362
1440.36	0.0739899
1440.63	0.113419
1440.89	9.3734
1441.16	8.37314
1441.43	4.30182
1441.69	3.28889
1441.96	-7.98865
1442.23	-3.87598
1442.49	-0.751282
1442.76	0.30011
1443.03	11.6308
1443.3	2.4054
1443.56	6.50641
1443.83	10.6099
1444.1	5.4922
1444.36	6.53423
1444.63	11.6906
1444.9	-1.57779
1445.16	2.57819
1445.43	6.74655
1445.7	0.600998
1445.97	1.63599
1446.23	2.672
1446.5	2.68219
1446.77	-0.383575
1447.03	-1.39813
1447.3	2.7148
1447.57	9.90027
1447.83	2.72655
1448.1	14.011
1448.37	4.80408
1448.63	7.92448
1448.9	2.84807
1449.17	9.03069
1449.43	-1.20741
1449.7	4.95544
1449.97	3.93272
1450.23	7.00677
1450.5	4.95412
1450.77	2.9124
1451.03	10.0967
1451.3	6.00577
1451.57	-0.135086
1451.83	-3.20275
1452.1	1.92752
1452.37	11.1578
1452.63	7.07304
1452.9	1.97147
1453.17	6.09531
1453.43	-1.04298
1453.7	6.16187
1453.97	9.25632
1454.23	6.1911
1454.5	-0.970673
1454.77	3.14674
1455.03	14.4374
1455.3	4.2047
1455.56	0.115555
1455.83	-3.96219
1456.1	10.4256
1456.36	6.35706
1456.63	-6.94958
1456.9	6.38115
1457.16	-1.82178
1457.43	14.5681
1457.7	0.232315
1457.96	2.29015
1458.23	12.5458
1458.49	9.4908
1458.76	7.46252
1459.03	-1.7329
1459.29	-5.8079
1459.56	3.43427
1459.82	5.50311
1460.09	-5.7555
1460.36	1.42456
1460.62	5.52942
1460.89	3.48598
1461.16	10.6576
1461.42	9.63161
1461.69	-3.68209
1461.95	1.43501
1462.22	2.45271
1462.49	-0.626068
1462.75	7.55016
1463.02	4.46695
1463.28	6.49747
1463.55	-4.76834
1463.82	7.48958
1464.08	-0.679047
1464.35	-0.623947
1464.61	6.61249
1464.88	-0.488953
1465.15	-1.43787
1465.41	3.59535
1465.68	0.305359
1465.94	-3.86797
1466.21	2.257
1466.48	-0.750732
1466.74	9.45848
1467.01	2.27002
1467.27	-4.87453
1467.54	8.41444
1467.8	-0.762085
1468.07	1.28267
1468.34	5.3708
1468.6	-1.75847
1468.87	10.4925
1469.13	0.297913
1469.4	2.33804
1469.67	3.3549
1469.93	7.42091
1470.2	-9.92698
1470.46	-0.76442
1470.73	9.42088
1470.99	2.28505
1471.26	3.30672
1471.53	-3.82983
1471.79	-9.953
1472.06	5.31828
1472.32	0.229309
1472.59	11.4372
1472.85	0.24469
1473.12	-2.80204
1473.39	4.32704
1473.65	1.26532
1473.92	-5.86744
1474.18	3.28862
1474.45	-3.83312
1474.71	5.3365
1474.98	-7.87105
1475.24	6.39729
1475.51	-6.82185
1475.78	-0.708092
1476.04	-12.9216
1476.31	7.42508
1476.57	3.35237
1476.84	6.40346
1477.1	1.30608
1477.37	-0.739143
1477.63	1.29427
1477.9	-3.78519
1478.16	-1.74464
1478.43	14.5198
1478.69	-1.76445
1478.96	5.34204
1479.22	-4.83161
1479.49	3.28613
1479.76	21.5584
1480.02	2.2357
1480.29	13.3885
1480.55	2.17963
1480.82	0.121109
1481.08	2.13406
1481.35	3.14546
1481.61	2.1172
1481.88	-9.02246
1482.14	11.2993
1482.41	4.22868
1482.67	1.21881
1482.94	-7.89028
1483.2	-7.8827
1483.47	-1.7677
1483.73	-2.76699
1484	-2.75894
1484.26	4.35243
1484.53	0.246445
1484.79	-4.88991
1485.06	1.06645
1485.32	-9.221
1485.59	-1.17893
1485.85	-1.26969
1486.12	-0.969589
1486.38	-1.94025
1486.65	-8.98233
1486.91	-0.999756
1487.18	-1.94169
1487.44	-13.0635
1487.71	2.10541
1487.97	-5.00839
1488.24	3.0825
1488.5	3.06726
1488.77	-1.00497
1489.03	9.09137
1489.3	-5.09543
1489.56	11.0858
1489.83	3.99727
1490.09	-3.08801
1490.36	-5.10687
1490.62	-2.06847
1490.89	14.1059
1491.15	4.98083
1491.42	-3.12941
1491.68	6.97403
1491.95	0.90683
1492.21	-6.16592
1492.48	4.96553
1492.74	2.94362
1493	-8.17947
1493.27	2.94104
1493.53	-6.15334
1493.8	2.93997
1494.06	-1.10423
1494.33	-1.09866
1494.59	8.01177
1494.86	4.994
1495.12	4.99245
1495.39	2.95315
1495.65	2.91833
1495.92	-3.1862
1496.18	-0.189194
1496.45	1.81001
1496.71	4.82406
1496.97	5.82011
1497.24	-0.250916
1497.5	-7.31418
1497.77	-4.28471
1498.03	6.81224
1498.3	0.756493
1498.56	-6.30434
1498.82	-0.243935
1499.09	3.79971
1499.35	5.82621
1499.62	-4.2567
1499.88	-2.22482
1500.15	-0.193031
1500.41	3.8518
1500.68	-6.24331
1500.94	-0.188454
1501.2	-8.26703
1501.47	-8.27836
1501.73	1.79215
1502	-3.26042
1502.26	7.83755
1502.52	-1.24847
1502.79	2.77654
1503.05	-6.32935
1503.32	10.7936
1503.58	-7.37443
1503.85	0.671021
1504.11	-9.4119
1504.37	1.69226
1504.64	13.7999
1504.9	-4.35076
1505.17	3.71114
1505.43	0.67276
1505.7	-2.37119
1505.96	-4.42216
1506.22	6.61668
1506.49	5.59982
1506.75	10.6326
1507.02	4.59345
1507.28	4.61216
1507.54	3.60918
1507.81	-1.42403
1508.07	5.62807
1508.34	-2.44276
1508.6	6.61777
1508.86	1.58146
1509.13	-1.43768
1509.39	7.632
1509.66	-6.47804
1509.92	12.6653
1510.18	-13.522
1510.45	-5.45347
1510.71	-0.440193
1510.98	-1.47386
1511.24	3.53127
1511.5	1.47908
1511.77	3.43827
1512.03	1.35567
1512.29	2.29179
1512.56	6.24563
1512.82	-0.844917
1513.08	2.13287
1513.35	7.12128
1513.61	-1.94221
1513.88	4.06801
1514.14	9.11658
1514.4	1.13131
1514.67	3.15038
1514.93	3.13264
1515.2	-2.92522
1515.46	8.08187
1515.72	4.0296
1515.99	1.97978
1516.25	-1.07136
1516.51	5.91888
1516.78	8.91078
1517.04	0.874847
1517.3	-0.139801
1517.57	-7.16515
1517.83	11.8835
1518.09	7.8791
1518.36	-4.13471
1518.62	-2.12596
1518.88	-2.12084
1519.15	8.91651
1519.41	-7.12624
1519.67	-4.1111
1519.94	0.907333
1520.2	-5.11953
1520.47	-0.11908
1520.73	3.88
1520.99	7.89594
1521.26	-6.14114
1521.52	4.90238
1521.78	0.888695
1522.05	3.88884
1522.31	0.862389
1522.57	1.84631
1522.84	6.84103
1523.1	8.82796
1523.36	-1.22777
