#Acq. time (s)=	30
#Accumulations=	2
#Range (cm-¹)=	1200...2365
#Windows=	3
#Auto scanning=	Off
#Autofocus=	Off
#Macrospot=	Off
#AutoExposure=	Off
#Spike filter=	Multiple accum.
#Delay time (s)=	2
#Binning=	1
#Readout mode=	Signal
#DeNoise=	Off
#ICS correction=	On
#Dark correction=	Off
#Inst. Process=	Off
#Detector Gain=	Best Dynamic
#Detector ADC=	50 kHz HS
#Detector temperature (°C)=	-60.09
#Instrument=	LabRAM HR Evol
#Detector=	SIN-EM FIVIS
#Objective=	x100_VIS_LWD
#Grating=	1800 (450-850nm)
#ND Filter=	100%
#Laser=	532nm_Edge
#Hole=	100.021
#Temperature=	0
#Range=	Visible
#StageXY=	75x50mm Scan+
#StageZ=	Z motor
#X (µm)=	0
#Y (µm)=	0
#Z (µm)=	-1.6
#Full time(mm:ss)=	3:11
#Project=	21_11_26
#Sample=	BU19(2)w
#Site=	
#Title=	BU19(2)w-A-FF1b-FI01-V_1800 (450-850nm)_532nm_Edge_100%_x100_VIS_LWD_H100um_30sX2
#Remark=	
#Date=	26.11.2021 14:10
#Acquired=	26.11.2021 14:10:41
#Base:Fit=	16.12.2021 16:00:56
#Base:Sub=	16.12.2021 16:02:24
1202.72	6.8654
1203	18.7745
1203.28	17.7023
1203.56	16.5692
1203.84	14.3502
1204.11	13.2263
1204.39	7.80852
1204.67	6.71611
1204.95	7.77694
1205.23	13.1195
1205.5	9.85085
1205.78	13.0269
1206.06	5.46072
1206.34	12.9229
1206.61	10.7253
1206.89	10.673
1207.17	8.47688
1207.45	8.42921
1207.73	11.601
1208	8.34803
1208.28	9.38188
1208.56	14.6931
1208.84	15.7158
1209.11	4.97359
1209.39	12.4153
1209.67	9.17047
1209.95	11.276
1210.23	5.89449
1210.5	11.1962
1210.78	12.208
1211.06	14.2874
1211.34	11.0317
1211.61	9.90855
1211.89	13.0582
1212.17	9.80006
1212.45	5.47897
1212.72	10.7581
1213	3.24738
1213.28	0.000671387
1213.56	2.08458
1213.83	9.49506
1214.11	10.5103
1214.39	10.4754
1214.67	6.18115
1214.94	7.20838
1215.22	9.2987
1215.5	14.5806
1215.78	10.2799
1216.05	10.2355
1216.33	1.66674
1216.61	12.2467
1216.89	2.60938
1217.16	11.0514
1217.44	6.74128
1217.72	9.87027
1218	1.31532
1218.27	0.199615
1218.55	5.45369
1218.83	8.5833
1219.1	4.28869
1219.38	8.48595
1219.66	9.49784
1219.94	7.32479
1220.21	12.5739
1220.49	6.16359
1220.77	8.24035
1221.04	7.13156
1221.32	2.83866
1221.6	2.78381
1221.88	6.96909
1222.15	12.2057
1222.43	6.83841
1222.71	13.1195
1222.98	11.983
1223.26	12.9646
1223.54	8.65942
1223.81	10.7017
1224.09	10.633
1224.37	6.33912
1224.65	8.38895
1224.92	8.32972
1225.2	11.4404
1225.48	11.3903
1225.76	6.07082
1226.03	9.19553
1226.31	5.98654
1226.59	9.10199
1226.86	3.76943
1227.14	13.2104
1227.42	9.98361
1227.69	3.57338
1227.97	7.68697
1228.25	7.60175
1228.52	7.51878
1228.8	11.6197
1229.08	12.5726
1229.35	8.31415
1229.63	10.5171
1229.91	6.37519
1230.18	4.16115
1230.46	5.11168
1230.74	10.3069
1231.01	14.4761
1231.29	11.2282
1231.57	5.80081
1231.84	12.0651
1232.12	1.50441
1232.4	4.60361
1232.67	6.64682
1232.95	8.69522
1233.23	9.69086
1233.5	18.0371
1233.78	4.32788
1234.06	9.53181
1234.33	10.5363
1234.61	8.38937
1234.89	8.34645
1235.16	8.30465
1235.44	-1.20205
1235.71	8.21173
1235.99	11.3213
1236.27	6.01749
1236.54	11.2216
1236.82	5.90545
1237.1	8.99767
1237.37	9.98318
1237.65	17.2639
1237.93	11.9362
1238.2	17.1102
1238.48	12.8355
1238.76	16.9561
1239.03	6.39795
1239.31	14.7242
1239.58	17.8083
1239.86	9.36282
1240.14	11.4034
1240.41	5.06039
1240.69	11.2976
1240.97	11.2477
1241.24	12.2477
1241.52	13.2472
1241.79	13.1897
1242.07	15.2222
1242.35	18.3067
1242.62	15.1129
1242.9	15.0658
1243.18	13.9762
1243.45	21.2719
1243.73	10.7372
1244	16.9767
1244.28	14.8338
1244.56	15.8304
1244.83	12.6303
1245.11	22.0065
1245.39	11.4601
1245.66	16.6315
1245.94	23.888
1246.21	21.7178
1246.49	20.61
1246.76	20.5539
1247.04	19.4576
1247.32	17.3128
1247.59	27.7231
1247.87	16.1594
1248.14	25.5206
1248.42	26.4875
1248.7	24.3306
1248.97	24.2775
1249.25	25.2791
1249.52	18.9604
1249.8	22.0443
1250.08	17.8095
1250.35	24.0371
1250.63	23.9721
1250.9	20.7674
1251.18	21.7475
1251.45	22.7292
1251.73	16.399
1252.01	17.3835
1252.28	19.4114
1252.56	22.4832
1252.83	23.4653
1253.11	20.2701
1253.39	27.5138
1253.66	19.1108
1253.94	29.4998
1254.21	24.2485
1254.49	26.3049
1254.76	20.0119
1255.04	24.1494
1255.31	25.1477
1255.59	26.1526
1255.87	25.0628
1256.14	27.1019
1256.42	24.9723
1256.69	32.2441
1256.97	39.5237
1257.24	26.9491
1257.52	38.3901
1257.79	45.6428
1258.07	64.3862
1258.35	55.9798
1258.62	50.7063
1258.9	45.4312
1259.17	45.3639
1259.45	43.2309
1259.72	40.0681
1260	44.2158
1260.27	49.4368
1260.55	57.7203
1260.82	62.8704
1261.1	64.8724
1261.37	74.1904
1261.65	77.257
1261.92	90.7968
1262.2	102.373
1262.48	116.132
1262.75	132.939
1263.02	147.211
1263.3	178.222
1263.58	189.544
1263.85	205.402
1264.13	193.029
1264.4	160.814
1264.68	158.792
1264.95	123.074
1265.23	103.133
1265.5	87.4174
1265.78	79.0065
1266.05	62.226
1266.33	67.412
1266.6	56.9342
1266.88	57.9577
1267.15	53.7613
1267.43	50.6139
1267.7	52.6982
1267.98	35.9565
1268.25	48.5086
1268.53	42.2388
1268.8	45.3815
1269.08	46.4141
1269.35	49.5392
1269.63	43.2312
1269.9	44.2384
1270.18	50.467
1270.45	50.3999
1270.73	45.1083
1271	49.2371
1271.28	49.1854
1271.55	46.0058
1271.83	47.0058
1272.1	48.0277
1272.38	51.1601
1272.65	53.2532
1272.93	36.5067
1273.2	51.1666
1273.47	48.0207
1273.75	48.0184
1274.03	42.7735
1274.3	46.965
1274.57	50.0991
1274.85	50.0744
1275.12	53.1874
1275.4	56.3053
1275.67	60.4853
1275.95	61.5253
1276.22	48.9253
1276.5	58.3699
1276.77	56.2637
1277.05	64.6586
1277.32	60.448
1277.6	63.6016
1277.87	69.9089
1278.14	78.3208
1278.42	73.0662
1278.69	82.5272
1278.97	84.6453
1279.24	90.9544
1279.52	93.0579
1279.79	103.544
1280.07	114.025
1280.34	139.222
1280.61	167.587
1280.89	201.238
1281.16	251.73
1281.44	320.175
1281.71	418.151
1281.99	564.509
1282.26	785.519
1282.53	1083.49
1282.81	1423.66
1283.08	1869.72
1283.36	2407.45
1283.63	2908.8
1283.91	3175.66
1284.18	2993.78
1284.45	2368.77
1284.73	1643.66
1285	1068.62
1285.28	690.295
1285.55	460.316
1285.83	321.144
1286.1	242.169
1286.37	188.509
1286.65	154.791
1286.92	142.099
1287.2	115.758
1287.47	105.202
1287.75	98.8458
1288.02	89.3295
1288.29	85.0883
1288.57	73.4953
1288.84	70.3266
1289.12	73.4783
1289.39	62.9574
1289.66	61.9121
1289.94	60.8675
1290.21	46.1336
1290.49	58.7793
1290.76	50.3383
1291.03	55.58
1291.31	46.0817
1291.58	50.2807
1291.86	45.0014
1292.13	48.1453
1292.4	47.0816
1292.68	49.1839
1292.95	35.4751
1293.22	37.5634
1293.5	44.9302
1293.77	37.5797
1294.05	38.6641
1294.32	49.2406
1294.59	34.4808
1294.87	40.7996
1295.14	48.1652
1295.42	24.9741
1295.69	33.4427
1295.96	28.2076
1296.24	34.6017
1296.51	28.2927
1296.79	34.6371
1297.06	28.2911
1297.33	28.2754
1297.61	33.5379
1297.88	33.5134
1298.15	32.4306
1298.43	22.8974
1298.7	28.183
1298.97	30.2838
1299.25	26.0412
1299.52	26.0258
1299.79	32.3419
1300.07	27.0598
1300.34	28.1279
1300.62	19.6875
1300.89	26.0227
1301.16	26.0166
1301.44	16.5095
1301.71	22.8469
1301.98	33.4201
1302.25	22.8717
1302.53	20.7656
1302.8	22.8803
1303.08	24.9918
1303.35	29.2116
1303.62	19.6972
1303.9	29.1873
1304.17	24.9616
1304.44	20.7412
1304.72	16.5193
1304.99	17.5762
1305.26	19.6807
1305.54	17.558
1305.81	22.8203
1306.08	18.5843
1306.35	21.7333
1306.63	19.6115
1306.9	17.4993
1307.18	22.7764
1307.45	18.5694
1307.72	25.9598
1308	16.4712
1308.27	19.6402
1308.54	17.5407
1308.81	15.4326
1309.09	19.6621
1309.36	16.5163
1309.63	19.6993
1309.91	18.6626
1310.18	13.4007
1310.45	17.6277
1310.73	13.4097
1311	15.5286
1311.27	10.2637
1311.55	17.6639
1311.82	12.3994
1312.09	20.8588
1312.37	11.3811
1312.64	19.8482
1312.91	19.8639
1313.18	13.5357
1313.46	12.4791
1313.73	16.7103
1314	17.7704
1314.28	15.6653
1314.55	15.677
1314.82	13.5824
1315.09	14.6578
1315.37	27.3496
1315.64	17.8694
1315.91	10.5001
1316.18	15.8039
1316.46	15.8145
1316.73	12.6554
1317	12.6666
1317.28	15.8473
1317.55	14.8061
1317.82	19.0566
1318.09	16.967
1318.37	15.9312
1318.64	10.668
1318.91	5.40341
1319.18	12.8154
1319.46	17.0558
1319.73	10.7313
1320	5.46408
1320.28	12.8811
1320.55	5.50452
1320.82	10.8009
1321.09	20.3153
1321.37	9.756
1321.64	12.9224
1321.91	6.58634
1322.18	6.59388
1322.46	9.75957
1322.73	17.1534
1323	8.72585
1323.27	11.8996
1323.55	8.74368
1323.82	15.0987
1324.09	8.79635
1324.36	10.9279
1324.64	7.78402
1324.91	13.0791
1325.18	20.4801
1325.45	11.0172
1325.73	17.3472
1326	12.067
1326.27	15.2089
1326.54	10.9701
1326.81	18.338
1327.09	5.73167
1327.36	12.0915
1327.63	7.95012
1327.9	14.3191
1328.18	17.531
1328.45	10.2059
1328.72	13.422
1328.99	11.3606
1329.27	13.5031
1329.54	10.3553
1329.81	16.7192
1330.08	9.35738
1330.35	13.5985
1330.63	17.8353
1330.9	9.41167
1331.17	8.36865
1331.44	16.8088
1331.71	8.37864
1331.99	9.43085
1332.26	11.5415
1332.53	11.5507
1332.8	8.40174
1333.07	-0.00701904
1333.35	19.98
1333.62	11.5749
1333.89	8.43102
1334.16	11.5936
1334.43	13.705
1334.71	17.9166
1334.98	6.38189
1335.25	17.9438
1335.52	6.41791
1335.79	9.58444
1336.07	12.7509
1336.34	13.8199
1336.61	11.744
1336.88	9.66994
1337.15	11.7913
1337.43	8.67259
1337.7	6.60354
1337.97	11.8698
1338.24	17.1251
1338.51	18.1889
1338.78	10.8799
1339.06	11.9497
1339.33	10.9292
1339.6	12.0086
1339.87	17.2814
1340.14	15.226
1340.42	16.31
1340.69	6.92281
1340.96	17.4332
1341.23	11.1837
1341.5	18.5471
1341.77	9.15341
1342.04	12.3234
1342.32	13.3956
1342.59	12.3707
1342.86	7.15737
1343.13	8.22377
1343.4	20.8034
1343.67	9.33039
1343.95	19.8243
1344.22	15.6781
1344.49	14.6717
1344.76	11.5724
1345.03	7.42157
1345.3	12.6777
1345.58	15.8373
1345.85	12.7184
1346.12	9.60592
1346.39	13.8006
1346.66	19.0248
1346.93	17.997
1347.2	15.9282
1347.47	10.7312
1347.75	13.8809
1348.02	11.8237
1348.29	10.8134
1348.56	16.0597
1348.83	11.9269
1349.1	14.0416
1349.37	13.0285
1349.65	14.0982
1349.92	11.003
1350.19	21.4453
1350.46	14.1865
1350.73	16.2978
1351	24.6477
1351.27	20.5087
1351.54	18.4588
1351.81	18.4829
1352.09	22.6799
1352.36	18.5627
1352.63	15.4951
1352.9	17.6345
1353.17	21.8627
1353.44	20.8785
1353.71	28.2781
1353.98	21.1027
1354.25	18.9926
1354.53	25.1663
1354.8	20.9734
1355.07	21.027
1355.34	23.1569
1355.61	24.2138
1355.88	13.8592
1356.15	27.4344
1356.42	22.2918
1356.69	25.4378
1356.96	26.5148
1357.24	18.2454
1357.51	16.2078
1357.78	28.7057
1358.05	22.5104
1358.32	29.8104
1358.59	24.6532
1358.86	26.7625
1359.13	15.3814
1359.4	27.8628
1359.67	19.6019
1359.94	26.8993
1360.22	32.1101
1360.49	27.9872
1360.76	24.9043
1361.03	33.2255
1361.3	18.7652
1361.57	33.3147
1361.84	32.3246
1362.11	33.4045
1362.38	27.2297
1362.65	32.4477
1362.92	33.5242
1363.19	32.5355
1363.46	35.6971
1363.73	48.1899
1364	35.8237
1364.28	43.1362
1364.55	40.0779
1364.82	55.6593
1365.09	46.3771
1365.36	48.4811
1365.63	35.0507
1365.9	39.221
1366.17	37.1817
1366.44	40.3165
1366.71	44.483
1366.98	40.3703
1367.25	42.4571
1367.52	45.5947
1367.79	39.4364
1368.06	41.5677
1368.33	58.1655
1368.6	76.8314
1368.87	122.378
1369.15	176.201
1369.41	166.967
1369.68	133.947
1369.95	79.182
1370.23	56.4774
1370.5	61.6863
1370.77	49.3095
1371.04	44.1834
1371.31	46.2853
1371.58	50.4426
1371.85	46.3322
1372.12	54.6034
1372.39	49.4586
1372.66	58.7588
1372.93	50.5357
1373.2	57.7884
1373.47	52.6747
1373.74	61.9909
1374.01	52.7595
1374.28	64.1396
1374.55	66.2468
1374.82	68.3544
1375.09	70.4604
1375.36	66.38
1375.63	69.5297
1375.9	67.5397
1376.17	74.8035
1376.44	77.9568
1376.71	72.8296
1376.98	73.8847
1377.25	87.281
1377.52	87.2797
1377.79	92.4985
1378.06	88.4736
1378.33	98.8826
1378.6	90.7703
1378.87	103.274
1379.14	97.1702
1379.41	110.624
1379.68	109.629
1379.95	115.847
1380.22	122.052
1380.49	125.125
1380.76	129.158
1381.03	133.248
1381.3	131.18
1381.57	134.352
1381.84	142.588
1382.11	141.529
1382.38	145.6
1382.65	169.195
1382.92	178.411
1383.19	175.303
1383.46	187.608
1383.73	212.21
1384	226.576
1384.27	265.553
1384.54	294.329
1384.81	364.14
1385.08	421.703
1385.34	531.652
1385.61	714.603
1385.88	990.988
1386.15	1477.94
1386.42	2262.71
1386.69	3598.42
1386.96	5232
1387.23	6778.87
1387.5	6578.51
1387.77	4884.87
1388.04	2990.87
1388.31	1659.51
1388.58	958.604
1388.85	661.999
1389.12	457.709
1389.39	350.281
1389.66	280.551
1389.93	238.546
1390.2	187.181
1390.46	176.799
1390.73	153.193
1391	136.84
1391.27	136.824
1391.54	129.693
1391.81	123.588
1392.08	118.486
1392.35	104.163
1392.62	91.9002
1392.89	95.0081
1393.16	90.9534
1393.43	87.9263
1393.7	83.8784
1393.97	81.8795
1394.23	75.7885
1394.5	75.8399
1394.77	81.0085
1395.04	67.7617
1395.31	71.9274
1395.58	65.8666
1395.85	79.2466
1396.12	75.2184
1396.39	67.0859
1396.66	66.1128
1396.93	62.0662
1397.2	61.0894
1397.46	52.9444
1397.73	59.124
1398	64.2886
1398.27	56.1651
1398.54	60.3241
1398.81	55.2822
1399.08	52.2803
1399.35	52.3461
1399.62	60.6099
1399.89	55.5647
1400.16	55.6351
1400.42	59.789
1400.69	55.7695
1400.96	56.8798
1401.23	59.0008
1401.5	44.7212
1401.77	49.9136
1402.04	58.1664
1402.31	59.2868
1402.58	51.2064
1402.84	55.4286
1403.11	52.4556
1403.38	67.9448
1403.65	52.6233
1403.92	59.8718
1404.19	61.9638
1404.46	68.1201
1404.73	63.0678
1404.99	69.2745
1405.26	76.5029
1405.53	73.4655
1405.8	84.7847
1406.07	90.9748
1406.34	92.0391
1406.61	102.336
1406.87	123.909
1407.14	137.303
1407.41	170.179
1407.68	192.812
1407.95	253.376
1408.22	286.264
1408.49	356.068
1408.76	357.179
1409.02	352.143
1409.29	301.988
1409.56	240.538
1409.83	182.154
1410.1	150.427
1410.37	108.431
1410.63	103.334
1410.9	80.7973
1411.17	66.4697
1411.44	65.4803
1411.71	55.2765
1411.98	53.2754
1412.25	45.1374
1412.51	47.2598
1412.78	48.3717
1413.05	47.464
1413.32	40.4456
1413.59	35.4204
1413.86	38.501
1414.12	44.6069
1414.39	34.4318
1414.66	32.4919
1414.93	29.5074
1415.2	34.6968
1415.47	37.8402
1415.73	34.8215
1416	28.7241
1416.27	30.8445
1416.54	29.8848
1416.81	30.9798
1417.07	33.1022
1417.34	30.0902
1417.61	28.1045
1417.88	25.0904
1418.15	30.2923
1418.42	31.3821
1418.68	28.3627
1418.95	20.2054
1419.22	28.488
1419.49	24.4392
1419.76	27.5753
1420.02	29.6779
1420.29	24.5878
1420.56	23.609
1420.83	30.8439
1421.1	26.7823
1421.36	23.7505
1421.63	22.7788
1421.9	23.869
1422.17	27.0263
1422.44	28.1365
1422.7	37.4663
1422.97	27.2892
1423.24	27.4072
1423.51	19.2895
1423.77	27.4266
1424.04	25.2945
1424.31	20.2445
1424.58	34.5894
1424.85	25.4289
1425.11	35.7556
1425.38	29.715
1425.65	34.9119
1425.92	27.7826
1426.19	22.736
1426.45	19.7138
1426.72	28.9933
1426.99	18.7811
1427.26	18.8246
1427.52	20.9164
1427.79	23.0001
1428.06	19.9664
1428.33	8.75307
1428.59	14.9521
1428.86	15.0119
1429.13	17.1223
1429.4	20.2581
1429.67	15.2034
1429.93	19.3679
1430.2	16.3655
1430.47	16.4394
1430.74	11.3846
1431	18.6365
1431.27	19.7462
1431.54	17.7725
1431.81	20.9202
1432.07	13.7942
1432.34	8.71228
1432.61	16.967
1432.87	15.9911
1433.14	17.0586
1433.41	20.1713
1433.68	18.1552
1433.95	13.0697
1434.21	14.1392
1434.48	15.2157
1434.75	12.2254
1435.01	13.3184
1435.28	17.4775
1435.55	15.4861
1435.82	10.4189
1436.08	15.5979
1436.35	15.652
1436.62	10.583
1436.89	6.53836
1437.15	12.7375
1437.42	19.9604
1437.69	8.74945
1437.95	16.9947
1438.22	15.0007
1438.49	13.0124
1438.76	8.97966
1439.02	15.1874
1439.29	20.3685
1439.56	9.15847
1439.82	13.3211
1440.09	11.3396
1440.36	14.4854
1440.63	9.42145
1440.89	11.5319
1441.16	16.7162
1441.43	13.6989
1441.69	9.64947
1441.96	9.6982
1442.23	15.9013
1442.49	11.8664
1442.76	11.9239
1443.03	6.8611
1443.3	2.80919
1443.56	9.0106
1443.83	9.05969
1444.1	13.2111
1444.36	16.34
1444.63	10.248
1444.9	7.2402
1445.16	10.3831
1445.43	11.4791
1445.7	12.5565
1445.97	6.45164
1446.23	7.52871
1446.5	8.60594
1446.77	4.5547
1447.03	7.68291
1447.3	9.78507
1447.57	10.8607
1447.83	8.85873
1448.1	9.93377
1448.37	8.96252
1448.63	7.9994
1448.9	10.1144
1449.17	13.2482
1449.43	7.1475
1449.7	14.3771
1449.97	8.27179
1450.23	10.3689
1450.5	6.31459
1450.77	7.38957
1451.03	13.5899
1451.3	6.46507
1451.57	4.46512
1451.83	3.4896
1452.1	4.56387
1452.37	3.58928
1452.63	8.76309
1452.9	1.64474
1453.17	1.69918
1453.43	3.80568
1453.7	4.88663
1453.97	5.9642
1454.23	6.01375
1454.5	5.03906
1454.77	9.19041
1455.03	6.16843
1455.3	9.29335
1455.56	10.367
1455.83	5.29647
1456.1	3.30563
1456.36	8.48549
1456.63	3.4122
1456.9	5.51024
1457.16	1.45612
1457.43	7.649
1457.7	3.59953
1457.96	2.62377
1458.23	4.72198
1458.49	1.69992
1458.76	7.89802
1459.03	6.92658
1459.29	5.9549
1459.56	0.883904
1459.82	-0.0895615
1460.09	4.05769
1460.36	4.10549
1460.62	5.17738
1460.89	5.22454
1461.16	6.29458
1461.42	7.36344
1461.69	8.43197
1461.95	2.33256
1462.22	5.44725
1462.49	9.58373
1462.75	5.53136
1463.02	6.59573
1463.28	5.61302
1463.55	5.65295
1463.82	4.67141
1464.08	8.80845
1464.35	5.80189
1464.61	6.89124
1464.88	2.85959
1465.15	7.02081
1465.41	2.9462
1465.68	3.95225
1465.94	6.01215
1466.21	0.953983
1466.48	4.07442
1466.74	4.1188
1467.01	3.13044
1467.27	4.19349
1467.54	3.2242
1467.8	6.3299
1468.07	4.33455
1468.34	5.40022
1468.6	0.346344
1468.87	4.47271
1469.13	7.57742
1469.4	5.58054
1469.67	3.58315
1469.93	3.62301
1470.2	1.62255
1470.46	3.70094
1470.73	7.81843
1470.99	5.82221
1471.26	5.86549
1471.53	7.94373
1471.79	2.88971
1472.06	3.94912
1472.32	0.937309
1472.59	4.03632
1472.85	5.09896
1473.12	3.10673
1473.39	2.13118
1473.65	4.2074
1473.92	5.26497
1474.18	1.23459
1474.45	0.259357
1474.71	7.42739
1474.98	2.38658
1475.24	1.41532
1475.51	2.47782
1475.78	6.59216
1476.04	5.61515
1476.31	6.67188
1476.57	6.71212
1476.84	0.648233
1477.1	1.70417
1477.37	5.81075
1477.63	6.86816
1477.9	-0.208618
1478.16	6.95236
1478.43	8.008
1478.69	6.01032
1478.96	5.03144
1479.22	5.06901
1479.49	5.10571
1479.76	2.0937
1480.02	2.12923
1480.29	1.14925
1480.55	5.24121
1480.82	6.28817
1481.08	5.30835
1481.35	7.37624
1481.61	5.38277
1481.88	3.39843
1482.14	4.45985
1482.41	1.46265
1482.67	2.52531
1482.94	1.55614
1483.2	6.67342
1483.47	3.6725
1483.73	3.71548
1484	6.80265
1484.26	-0.266338
1484.53	2.80764
1484.79	5.87376
1485.06	-0.203463
1485.32	6.88241
1485.59	3.87044
1485.85	6.91759
1486.12	4.00026
1486.38	3.03573
1486.65	6.1286
1486.91	8.15684
1487.18	9.22807
1487.44	3.1926
1487.71	6.26162
1487.97	11.3567
1488.24	4.30087
1488.5	5.34688
1488.77	2.34103
1489.03	7.43269
1489.3	2.40476
1489.56	2.43962
1489.83	5.51034
1490.09	4.53439
1490.36	4.57205
1490.62	2.58605
1490.89	5.65433
1491.15	1.63986
1491.42	5.71604
1491.68	3.72806
1491.95	5.78585
1492.21	6.83382
1492.48	4.85021
1492.74	1.85294
1493	1.88785
1493.27	0.912523
1493.53	3.98175
1493.8	8.05935
1494.06	2.02931
1494.33	2.06583
1494.59	1.09289
1494.86	5.17517
1495.12	9.25327
1495.39	5.23987
1495.65	2.23438
1495.92	2.25916
1496.18	6.32542
1496.45	6.35448
1496.71	4.36565
1496.97	6.41555
1497.24	5.43655
1497.5	3.45242
1497.77	6.51456
1498.03	2.51027
1498.3	6.58047
1498.56	5.60581
1498.82	8.66834
1499.09	9.71283
1499.35	1.67384
1499.62	8.7751
1499.88	10.8306
1500.15	6.82916
1500.41	6.8638
1500.68	5.88725
1500.94	6.92889
1501.2	3.93213
1501.47	6.99005
1501.73	8.02563
1502	7.04701
1502.26	6.06948
1502.52	7.10955
1502.79	6.12972
1503.05	11.199
1503.32	4.16356
1503.58	10.2429
1503.85	5.22646
1504.11	7.2747
1504.37	9.32633
1504.64	9.35946
1504.9	10.3994
1505.17	2.36176
1505.43	9.44811
1505.7	6.44929
1505.96	5.46301
1506.22	8.5052
1506.49	6.51862
1506.75	4.53335
1507.02	9.60248
1507.28	-0.438431
1507.54	2.61575
1507.81	5.67023
1508.07	2.67686
1508.34	8.75035
1508.6	7.77064
1508.86	10.8237
1509.13	9.84673
1509.39	9.87667
1509.66	5.87488
1509.92	10.9421
1510.18	10.9749
1510.45	3.95154
1510.71	8.00522
1510.98	8.02743
1511.24	8.04807
1511.5	7.06026
1511.77	9.08858
1512.03	2.05654
1512.29	8.10322
1512.56	7.10976
1512.82	5.11485
1513.08	4.13018
1513.35	10.1756
1513.61	8.18852
1513.88	6.20536
1514.14	5.2359
1514.4	4.27034
1514.67	8.31824
1514.93	5.32805
1515.2	1.33112
1515.46	3.35845
1515.72	5.38518
1515.99	9.41599
1516.25	8.42881
1516.51	12.4596
1516.78	6.46525
1517.04	8.49398
1517.3	0.49646
1517.57	11.5504
1517.83	5.56061
1518.09	5.58831
1518.36	5.61922
1518.62	7.65185
1518.88	9.6854
1519.15	8.70939
1519.41	4.72439
1519.67	7.76127
1519.94	5.78097
1520.2	7.81127
1520.47	7.8328
1520.73	10.8642
1520.99	9.88719
1521.26	6.90486
1521.52	12.9518
1521.78	11.9736
1522.05	8.98578
1522.31	8.00302
1522.57	8.02297
1522.84	9.04559
1523.1	8.06233
1523.36	9.08297
1523.62	5.08594
1523.89	11.1099
1524.15	6.11419
1524.41	6.1304
1524.68	5.14626
1524.94	12.1732
1525.2	6.19117
1525.47	10.2208
1525.73	6.23802
1525.99	9.26947
1526.26	10.2993
1526.52	14.3387
1526.78	7.35208
1527.05	9.38083
1527.31	8.39916
1527.57	12.4247
1527.84	8.43498
1528.1	8.45326
1528.36	10.4757
1528.63	9.49061
1528.89	6.50235
