#Acq. time (s)=	60
#Accumulations=	2
#Range (cm-¹)=	100...4000
#Windows=	1
#Auto scanning=	Off
#Autofocus=	Off
#Macrospot=	Off
#AutoExposure=	Off
#Spike filter=	Multiple accum.
#Delay time (s)=	2
#Binning=	1
#Readout mode=	Signal
#DeNoise=	Off
#ICS correction=	On
#Dark correction=	Off
#Inst. Process=	Off
#Detector Gain=	Best Dynamic
#Detector ADC=	50 kHz HS
#Detector temperature (°C)=	-60.28
#Instrument=	LabRAM HR Evol
#Detector=	SIN-EM FIVIS
#Objective=	x100_VIS
#Grating=	150 (500nm)
#ND Filter=	100%
#Laser=	633nm_Edge
#Hole=	49.98
#Temperature=	0
#Range=	Visible
#StageXY=	75x50mm Scan+
#StageZ=	Z motor
#X (µm)=	0
#Y (µm)=	0
#Z (µm)=	-289.1
#Full time(mm:ss)=	2:04
#Project=	21_11_04
#Sample=	BU19w
#Site=	
#Title=	BU19w-E-FF11-FI01-V_150 (500nm)_633nm_Edge_100%_x100_VIS_H50um_60sX2
#Remark=	
#Date=	04.11.2021 16:41
#Acquired=	04.11.2021 16:41:53
#Base:Fit=	16.12.2021 17:39:50
#Base:Fit=	16.12.2021 17:50:25
#Base:Edit=	16.12.2021 17:50:28
#Base:Edit=	16.12.2021 17:50:29
#Base:Edit=	16.12.2021 17:50:30
#Peaks:Remove=	16.12.2021 17:50:32
#Peaks:Remove=	16.12.2021 17:50:33
#Peaks:Remove=	16.12.2021 17:50:34
#Base:Edit=	16.12.2021 17:50:36
#Base:Edit=	16.12.2021 17:50:37
#Base:Edit=	16.12.2021 17:50:38
#Base:Edit=	16.12.2021 17:50:40
#Base:Edit=	16.12.2021 17:50:40
#Base:Sub=	16.12.2021 17:50:42
102.881	137.933
106.139	85.7467
109.397	105.104
112.653	85.3394
115.908	74.1533
119.161	59.1173
122.414	67.0249
125.664	67.2824
128.914	59.8969
132.162	60.1469
135.409	62.3035
138.654	65.3994
141.898	54.1476
145.14	60.1421
148.383	46.038
151.622	65.4482
154.861	76.2741
158.098	83.2762
161.335	70.1726
164.569	51.3151
167.801	32.4364
171.034	9.70649
174.264	21.4741
177.494	8.2992
180.721	-0.0880356
183.949	7.79082
187.173	5.12055
190.396	4.35049
193.62	-0.238419
196.84	2.83044
200.061	-2.66825
203.279	10.0151
206.496	3.60661
209.712	9.59264
212.926	7.94608
216.139	13.9349
219.352	22.7785
222.562	42.0969
225.772	74.7201
228.979	101.535
232.185	98.8359
235.392	75.2451
238.595	53.5865
241.797	25.3011
244.999	18.9258
248.199	27.7429
251.397	18.4964
254.595	30.1331
257.791	37.0286
260.985	31.594
264.178	31.8557
267.371	19.7938
270.561	26.7094
273.75	34.577
276.939	35.8096
280.125	40.8231
283.31	39.1839
286.494	30.9018
289.678	18.8214
292.859	14.314
296.039	16.4375
299.217	22.3457
302.396	22.5674
305.572	44.5282
308.746	50.4046
311.919	78.0054
315.093	150.909
318.263	175.618
321.433	192.811
324.601	156.238
327.768	108.348
330.935	71.8057
334.099	50.3565
337.262	48.7109
340.423	31.0341
343.584	27.5008
346.743	35.2654
349.902	38.3149
353.058	51.7098
356.213	48.1296
359.367	47.3692
362.52	28.7272
365.671	33.6081
368.821	21.5668
371.971	17.0527
375.119	11.5957
378.265	12.716
381.41	3.51698
384.553	7.47211
387.696	2.08555
390.837	6.10064
393.976	2.62853
397.116	1.04532
400.253	10.7797
403.389	14.8707
406.524	8.59602
409.657	14.5718
412.789	13.9282
415.92	15.1455
419.05	19.213
422.178	29.874
425.305	31.9631
428.431	36.7879
431.555	37.7918
434.678	37.8479
437.8	28.4753
440.921	41.7026
444.04	30.4575
447.158	45.4985
450.275	50.176
453.391	57.6568
456.505	43.646
459.618	43.6933
462.73	26.9867
465.84	22.4515
468.949	8.60364
472.057	13.411
475.164	17.3087
478.27	10.9742
481.374	10.2194
484.477	14.1177
487.579	18.0154
490.679	18.1876
493.778	28.6166
496.876	28.7863
499.973	29.8922
503.068	40.3354
506.162	43.3186
509.255	40.7078
512.346	45.5719
515.436	44.8408
518.525	41.3272
521.613	44.3771
524.7	38.0841
527.785	38.3515
530.869	46.1417
533.952	38.0024
537.033	34.5426
540.113	21.6293
543.192	36.9449
546.27	20.1898
549.347	25.0726
552.423	17.6966
555.497	21.6389
558.568	14.2035
561.64	11.4443
564.711	11.5005
567.78	16.2426
570.848	12.4812
573.915	16.2251
576.979	18.0636
580.043	19.8974
583.107	18.0096
586.169	16.1356
589.228	28.278
592.287	32.0483
595.345	37.6912
598.402	29.3973
601.458	31.4125
604.511	35.3286
607.565	36.4559
610.617	34.8012
613.667	37.832
616.716	31.5426
619.764	30.8633
622.811	29.2565
625.856	19.1906
628.9	9.98133
631.944	12.0269
634.986	14.9783
638.026	13.1732
641.066	14.166
644.104	14.1706
647.14	18.897
650.177	17.0323
653.211	17.0138
656.244	14.1651
659.276	11.3228
662.308	15.0324
665.336	10.3334
668.365	0.982323
671.393	-3.65138
674.418	-0.760101
677.443	1.19153
680.467	0.336159
683.489	1.3735
686.511	0.560097
689.53	1.63807
692.549	4.60545
695.567	-1.78117
698.582	-2.56198
701.598	0.403519
704.611	-0.388527
707.624	-7.77469
710.635	6.44124
713.646	-3.85841
716.655	-3.80993
719.662	4.6911
722.669	-6.52709
725.674	-6.4943
728.679	-3.66919
731.681	-2.72697
734.683	-3.65972
737.683	-1.78622
740.683	2.8903
743.681	-3.64423
746.678	3.83913
749.673	2.92311
752.669	-3.56177
755.661	-0.723907
758.654	0.287216
761.645	7.87057
764.635	-2.25037
767.623	4.45742
770.611	3.68997
773.597	1.98447
776.582	4.02076
779.565	-3.36138
782.549	7.10997
785.53	2.51087
788.511	-4.92934
791.489	4.58538
794.466	0.887428
797.444	0.00310516
800.419	2.87066
803.394	5.72246
806.366	4.79065
809.339	11.3896
812.309	6.66956
815.278	6.6435
818.247	0.974411
821.214	2.81512
824.18	-1.90952
827.145	10.212
830.108	9.2476
833.072	6.46913
836.033	10.26
838.992	3.80328
841.952	8.60464
844.909	11.5287
847.865	6.96593
850.822	7.09856
853.776	4.41875
856.728	12.0862
859.681	14.1277
862.631	15.2325
865.58	15.3955
868.528	16.5031
871.476	25.1682
874.422	20.5489
877.366	23.4839
880.311	17.875
883.253	23.6352
886.194	28.4287
889.134	18.971
892.074	18.9893
895.012	23.7395
897.948	27.5043
900.883	21.7581
903.818	16.9572
906.751	20.6653
909.683	17.7521
912.614	15.7896
915.543	21.3617
918.473	18.5045
921.4	19.4325
924.326	33.544
927.251	36.4085
930.174	33.692
933.098	34.7302
936.019	42.4165
938.94	47.3543
941.859	64.6089
944.777	63.9436
947.693	72.7826
950.61	75.003
953.525	70.5472
956.438	78.4545
959.35	71.067
962.261	75.1151
965.171	79.1314
968.08	86.0234
970.988	107.28
973.894	128.514
976.801	122.806
979.705	140.996
982.608	155.282
985.51	154.183
988.411	132.961
991.311	111.762
994.209	97.2812
997.107	82.8386
1000	83.7068
1002.9	80.7756
1005.79	91.224
1008.68	82.6432
1011.58	97.9784
1014.47	109.536
1017.36	103.91
1020.25	110.711
1023.13	96.5545
1026.02	92.9392
1028.9	64.4199
1031.79	68.4502
1034.67	63.8642
1037.55	50.6193
1040.43	46.9696
1043.31	47.1655
1046.19	44.47
1049.07	37.8617
1051.94	37.0276
1054.82	37.1482
1057.69	29.4813
1060.56	29.5482
1063.44	27.6473
1066.31	24.7299
1069.17	34.4396
1072.04	26.6702
1074.91	38.3084
1077.77	39.2489
1080.64	47.9394
1083.5	62.4377
1086.37	74.0156
1089.23	97.2367
1092.09	111.724
1094.95	129.109
1097.8	107.756
1100.66	100.935
1103.52	74.7955
1106.37	70.0208
1109.22	56.4946
1112.08	43.022
1114.93	44.1688
1117.78	42.4287
1120.63	45.5111
1123.48	41.7503
1126.32	44.7985
1129.17	53.7342
1132.01	56.8236
1134.86	65.7964
1137.7	76.7407
1140.54	86.7441
1143.38	108.527
1146.22	119.466
1149.06	143.23
1151.89	108.889
1154.73	99.0749
1157.56	63.6097
1160.4	38.951
1163.23	36.8817
1166.06	31.865
1168.89	19.9918
1171.72	13.0387
1174.55	15.8892
1177.38	18.7276
1180.2	15.7108
1183.03	13.6901
1185.85	6.82305
1188.67	9.74468
1191.49	5.8364
1194.31	11.7317
1197.13	10.7964
1199.95	9.89003
1202.77	-2.74728
1205.58	1.27819
1208.4	6.31628
1211.21	5.45644
1214.02	-2.30614
1216.84	-1.18222
1219.65	7.89115
1222.46	-5.86449
1225.27	2.24797
1228.07	3.39849
1230.88	7.54668
1233.68	4.67009
1236.49	-0.242569
1239.29	-0.154976
1242.09	4.94756
1244.89	10.0385
1247.69	7.03721
1250.49	14.109
1253.29	25.2224
1256.08	14.0761
1258.88	7.95923
1261.67	14.945
1264.47	9.81787
1267.26	10.7479
1270.05	40.8667
1272.84	169.496
1275.63	156.149
1278.42	41.4316
1281.2	10.1954
1283.99	8.08464
1286.77	7.98998
1289.56	3.90416
1292.34	13.8304
1295.12	7.77789
1297.9	6.73654
1300.68	1.70434
1303.46	3.69136
1306.23	10.7048
1309.01	-4.27351
1311.78	3.80438
1314.56	2.87691
1317.33	-0.062561
1320.1	4.04862
1322.87	6.16322
1325.64	-3.8421
1328.41	7.39875
1331.18	7.51371
1333.94	3.5426
1336.71	1.58824
1339.47	1.65977
1342.24	6.81797
1345	2.76291
1347.76	8.93436
1350.52	5.88512
1353.28	1.79615
1356.04	0.768738
1358.79	5.89191
1361.55	6.89484
1364.3	9.9364
1367.06	12.962
1369.81	18.0342
1372.56	28.2364
1375.31	161.699
1378.06	311.54
1380.81	127.611
1383.56	24.8561
1386.3	11.4349
1389.05	17.5139
1391.79	14.3759
1394.53	17.4109
1397.28	9.20393
1400.02	30.7846
1402.76	11.253
1405.5	11.2553
1408.23	9.20356
1410.97	-0.0638046
1413.71	8.20251
1416.44	5.12875
1419.17	7.21912
1421.91	-3.10926
1424.64	1.06022
1427.37	-4.10623
1430.1	-5.12404
1432.83	-4.06573
1435.55	-4.04887
1438.28	6.40314
1441.01	-0.890495
1443.73	4.3644
1446.45	-1.90131
1449.17	-0.862022
1451.89	5.40566
1454.62	4.32084
1457.33	10.5682
1460.05	4.20419
1462.77	4.12863
1465.48	-2.25557
1468.2	1.8553
1470.91	2.81628
1473.63	1.6812
1476.34	4.7532
1479.05	-1.61067
1481.76	1.47397
1484.47	1.4155
1487.17	1.36585
1489.88	-2.88029
1492.59	3.3986
1495.29	0.222198
1497.99	8.63622
1500.7	-1.91552
1503.4	-1.92326
1506.1	4.4199
1508.8	1.2606
1511.5	7.63851
1514.19	1.3013
1516.89	-10.3677
1519.59	0.303604
1522.28	9.9434
1524.97	0.38166
1527.67	-1.72393
1530.36	-1.68553
1533.05	1.58952
1535.74	-3.75231
1538.42	-2.66615
1541.11	3.81766
1543.8	3.80341
1546.48	-0.576149
1549.16	2.5863
1551.85	0.315079
1554.53	2.33857
1557.21	4.34353
1559.89	-1.19785
1562.57	-3.49118
1565.25	2.84344
1567.93	1.62235
1570.6	6.86577
1573.28	-1.89508
1575.95	0.125069
1578.62	-2.13728
1581.29	3.14211
1583.97	1.96758
1586.64	8.33575
1589.3	3.94277
1591.97	1.7115
1594.64	1.64365
1597.3	3.74473
1599.97	-2.78326
1602.63	2.57458
1605.3	0.381973
1607.96	6.86317
1610.62	-1.80129
1613.28	2.55743
1615.94	3.68018
1618.59	-0.634132
1621.25	1.5883
1623.91	-1.65462
1626.56	8.24394
1629.21	2.80121
1631.87	-0.467049
1634.52	3.94926
1637.17	-4.88408
1639.82	2.77321
1642.47	7.13221
1645.12	-0.654892
1647.76	2.60307
1650.41	10.2853
1653.05	-0.863739
1655.7	2.37265
1658.34	0.0556793
1660.98	2.16609
1663.62	7.60187
1666.26	-0.277275
1668.9	4.03951
1671.54	-2.73603
1674.18	2.68708
1676.81	0.335419
1679.45	4.64351
1682.08	-2.15471
1684.71	6.54995
1687.34	3.06181
1689.98	-3.73813
1692.61	10.5091
1695.23	1.5284
1697.86	-6.32108
1700.49	5.81089
1703.12	0.354424
1705.74	4.8811
1708.36	0.478271
1710.99	1.39628
1713.61	-0.99781
1716.23	-4.40871
1718.85	5.65614
1721.47	1.14955
1724.09	1.07243
1726.7	1.0229
1729.32	-0.141769
1731.94	-3.55638
1734.55	-2.48352
1737.16	1.96348
1739.77	-5.97212
1742.39	2.98867
1745	7.45243
1747.61	-0.513382
1750.21	3.93063
1752.82	2.71809
1755.43	-3.02895
1758.03	-3.13775
1760.64	5.79692
1763.24	4.5425
1765.84	6.69002
1768.44	0.913284
1771.05	-3.7307
1773.64	1.82632
1776.24	-7.34506
1778.84	0.507904
1781.44	-4.10893
1784.03	1.50092
1786.63	0.302147
1789.22	3.67337
1791.81	-0.926376
1794.41	8.16157
1797	8.13434
1799.59	3.54556
1802.18	-6.78371
1804.76	3.51427
1807.35	0.0434189
1809.94	3.44878
1812.52	8.00945
1815.11	3.35919
1817.69	-1.29746
1820.27	-1.34979
1822.85	-6.02214
1825.43	7.82063
1828.01	-4.96218
1830.59	7.76013
1833.17	4.24534
1835.74	3.05991
1838.32	0.685959
1840.89	4.12343
1843.47	2.89546
1846.04	-1.84202
1848.61	-7.76157
1851.18	0.348045
1853.75	-4.43163
1856.32	1.34028
1858.89	3.61459
1861.45	1.21233
1864.02	2.32763
1866.58	2.28335
1869.15	3.40356
1871.71	0.975609
1874.27	3.24636
1876.83	-1.55621
1879.39	0.708092
1881.95	-1.74605
1884.51	0.511162
1887.07	-7.86729
1889.63	-2.09002
1892.18	-2.23643
1894.74	-2.38522
1897.29	1.02302
1899.84	0.902748
1902.39	-0.363831
1904.94	0.75882
1907.49	-2.85787
1910.04	-4.08097
1912.59	3.0411
1915.14	-6.47443
1917.68	-2.91288
1920.23	2.94042
1922.77	-0.725487
1925.32	2.80144
1927.86	6.33498
1930.4	12.2703
1932.94	-2.1706
1935.48	-8.24353
1938.02	0.0802917
1940.56	-0.00558472
1943.09	4.71153
1945.63	-2.6078
1948.16	0.896507
1950.7	5.59438
1953.23	1.85188
1955.76	-1.89759
1958.29	-3.24271
1960.82	-4.59171
1963.35	-7.15134
1965.88	-2.48363
1968.41	4.57866
1970.93	-5.24042
1973.46	-10.2401
1975.98	-1.99
1978.51	12.2749
1981.03	1.25632
1983.55	-1.3325
1986.07	6.90837
1988.59	1.9213
1991.11	-1.85922
1993.63	1.57844
1996.15	3.81837
1998.66	-3.55075
2001.18	4.71383
2003.69	5.77435
2006.2	3.24051
2008.72	-1.69665
2011.23	-4.21888
2013.74	4.09131
2016.25	-6.86268
2018.76	1.43944
2021.27	4.93027
2023.77	-2.40838
2026.28	7.14748
2028.78	1.02973
2031.29	-5.0836
2033.79	3.31853
2036.29	-2.79251
2038.79	-5.27796
2041.3	-2.91261
2043.79	3.10409
2046.29	-0.586327
2048.79	9.10598
2051.29	0.540993
2053.78	2.89172
2056.28	-2.04686
2058.77	0.351021
2061.27	-2.13763
2063.76	2.71516
2066.25	3.90529
2068.74	1.40821
2071.23	2.58908
2073.72	-3.60437
2076.21	9.88052
2078.69	1.20763
2081.18	4.84693
2083.66	-1.39291
2086.15	7.17045
2088.63	4.60877
2091.11	9.48729
2093.59	4.48595
2096.07	3.21184
2098.55	0.696304
2101.03	5.63407
2103.51	3.12705
2105.99	4.35714
2108.46	4.35019
2110.94	6.849
2113.41	23.1287
2115.89	4.37477
2118.36	-5.65213
2120.83	0.629051
2123.3	1.88995
2125.77	-1.89191
2128.24	3.14764
2130.71	1.87296
2133.17	0.586929
2135.64	3.09231
2138.11	4.32863
2140.57	8.10331
2143.03	10.6133
2145.49	-0.883919
2147.96	6.69473
2150.42	5.34511
2152.88	6.5369
2155.34	3.89118
2157.79	1.23407
2160.25	7.50856
2162.71	16.332
2165.16	9.80686
2167.62	-6.95875
2170.07	-0.705101
2172.52	8.12932
2174.97	2.89651
2177.43	-1.06789
2179.88	5.18458
2182.32	-1.37252
2184.77	1.01433
2187.22	3.41276
2189.67	-1.85474
2192.11	-1.98889
2194.56	-3.39954
2197	1.61403
2199.44	0.238022
2201.89	0.155907
2204.33	-2.48281
2206.77	5.16572
2209.21	5.12197
2211.64	-5.21505
2214.08	5.05744
2216.52	3.7485
2218.95	3.73534
2221.39	-2.74686
2223.82	-2.76645
2226.26	7.59347
2228.69	8.88621
2231.12	-5.42709
2233.55	3.66707
2235.98	1.04716
2238.41	-8.10814
2240.84	-4.21494
2243.26	-12.0891
2245.69	4.9218
2248.12	-4.27216
2250.54	3.59072
2252.96	3.57498
2255.39	2.24256
2257.81	-3.04008
2260.23	-4.37662
2262.65	-12.3383
2265.07	-1.80022
2267.49	-9.8018
2269.9	8.69176
2272.32	0.661812
2274.74	5.88852
2277.15	11.114
2279.57	0.380173
2281.98	9.56761
2284.39	1.45219
2286.8	15.9362
2289.21	-5.49261
2291.62	-2.97968
2294.03	0.862473
2296.44	0.722809
2298.84	-3.39098
2301.25	0.49131
2303.66	-10.2657
2306.06	2.99118
2308.46	5.60493
2310.87	6.90458
2313.27	9.55219
2315.67	-2.5117
2318.07	16.2507
2320.47	33.7157
2322.87	22.9871
2325.26	14.939
2327.66	-1.21592
2330.06	6.88565
2332.45	6.91377
2334.85	4.23849
2337.24	12.4079
2339.63	8.38039
2342.02	-1.08904
2344.41	-5.13371
2346.8	-6.44048
2349.19	0.437553
2351.58	-3.62451
2353.97	-2.22378
2356.35	3.28
2358.74	10.1662
2361.12	10.1246
2363.51	-9.20623
2365.89	7.32088
2368.27	-3.75701
2370.65	0.354202
2373.03	8.62375
2375.41	-5.27107
2377.79	-12.2545
2380.17	-6.77762
2382.55	-2.69297
2384.92	9.71529
2387.3	1.26511
2389.67	1.14377
2392.05	-8.73839
2394.42	3.64213
2396.79	3.47803
2399.16	6.09414
2401.53	3.14743
2403.9	7.14259
2406.27	1.39782
2408.64	-0.136726
2411.01	-12.752
2413.37	6.72329
2415.74	-4.3649
2418.1	-1.37729
2420.47	4.33794
2422.83	-12.5487
2425.19	18.285
2427.55	-8.47216
2429.91	12.6553
2432.27	1.38441
2434.63	8.47187
2436.99	1.43674
2439.34	4.30145
2441.7	5.75136
2444.05	12.8933
2446.41	0.120758
2448.76	-4.1307
2451.11	10.1751
2453.47	0.196335
2455.82	-2.64973
2458.17	4.54237
2460.51	-1.17847
2462.86	1.71892
2465.21	0.296051
2467.56	14.7341
2469.9	0.309067
2472.25	-1.14175
2474.59	4.64839
2476.94	4.66057
2479.28	-4.0429
2481.62	-4.05326
2483.96	1.75148
2486.3	-2.64926
2488.64	1.6922
2490.98	-2.72267
2493.32	10.394
2495.65	14.7691
2497.99	0.099884
2500.32	7.38893
2502.66	4.41351
2504.99	2.89499
2507.32	-3.04385
2509.66	2.76923
2511.99	11.526
2514.32	-0.337524
2516.65	-6.32204
2518.98	6.87651
2521.3	-0.560089
2523.63	8.24184
2525.96	-5.13098
2528.28	-3.72333
2530.61	6.57111
2532.93	-2.37019
2535.25	4.99995
2537.57	3.4805
2539.89	10.8816
2542.22	-4.01982
2544.53	-1.0755
2546.85	-7.05911
2549.17	7.83937
2551.49	10.8158
2553.8	-8.64643
2556.12	1.78568
2558.43	3.23442
2560.75	-5.79297
2563.06	3.19102
2565.37	3.1913
2567.68	-1.32367
2569.99	15.269
2572.3	13.7884
2574.61	7.76183
2576.92	4.73619
2579.23	13.8094
2581.53	0.13382
2583.84	-7.52702
2586.14	-0.0207062
2588.45	-4.67642
2590.75	-0.255112
2593.05	4.20337
2595.35	2.6031
2597.66	1.02667
2599.96	10.1028
2602.26	-0.648712
2604.55	5.36726
2606.85	9.85744
2609.15	-2.45511
2611.44	6.59219
2613.74	3.41617
2616.03	6.35692
2618.33	4.72169
2620.62	9.20129
2622.91	-0.094162
2625.2	7.4698
2627.49	11.9818
2629.78	1.18781
2632.07	5.76917
2634.36	10.38
2636.64	13.4962
2638.93	4.31511
2641.22	9.00206
2643.5	-1.76324
2645.78	2.94923
2648.07	-10.9716
2650.35	4.60458
2652.63	6.22002
2654.91	12.4498
2657.19	3.0535
2659.47	-6.36855
2661.75	4.50374
2664.03	4.42711
2666.3	1.20625
2668.58	-0.415985
2670.85	12.0786
2673.13	7.38106
2675.4	7.43886
2677.67	10.7375
2679.95	14.1299
2682.22	-1.50247
2684.49	9.75577
2686.76	5.16414
2689.03	2.13692
2691.29	10.2348
2693.56	-0.847687
2695.83	-12.127
2698.09	5.45732
2700.36	-0.965347
2702.62	-0.988861
2704.89	5.40617
2707.15	-1.063
2709.41	6.94305
2711.67	-14.0598
2713.93	-1.20442
2716.19	-4.43318
2718.45	1.998
2720.7	6.8235
2722.96	0.305054
2725.22	-1.3878
2727.47	-1.4682
2729.73	-3.18626
2731.98	-1.68668
2734.23	11.2002
2736.49	6.20509
2738.74	17.4536
2740.99	2.72748
2743.24	12.4071
2745.49	-5.57274
2747.73	-7.26462
2749.98	-4.03894
2752.23	12.3658
2754.47	4.22798
2756.72	7.48932
2758.96	-0.748688
2761.21	0.815674
2763.45	5.69341
2765.69	0.740433
2767.93	12.2399
2770.17	2.32416
2772.41	2.30316
2774.65	-10.8961
2776.89	0.682602
2779.13	-0.936951
2781.36	2.4595
2783.6	2.54369
2785.84	-0.692322
2788.07	-5.61035
2790.3	-2.20842
2792.54	-5.48792
2794.77	-2.08975
2797	-10.4409
2799.23	11.3907
2801.46	11.4167
2803.69	1.33405
2805.92	-8.78297
2808.14	-2.07248
2810.37	-13.9144
2812.59	7.9894
2814.82	-0.513962
2817.04	4.49771
2819.27	4.44545
2821.49	1.01035
2823.71	4.35851
2825.93	4.32132
2828.15	2.57887
2830.37	4.2267
2832.59	-0.930832
2834.81	-0.998093
2837.03	-2.765
2839.24	-4.53238
2841.46	0.521378
2843.67	2.17471
2845.89	5.55992
2848.1	-1.30467
2850.31	-8.16983
2852.53	-9.88719
2854.74	2.13315
2856.95	15.906
2859.16	-9.84781
2861.37	-16.7073
2863.57	-13.2217
2865.78	2.38266
2867.99	0.737503
2870.19	6.01428
2872.4	0.891251
2874.6	-14.6714
2876.81	2.79739
2879.01	15.102
2881.21	-5.72653
2883.41	-3.87074
2885.61	-1.99945
2887.81	8.64767
2890.01	-7.06236
2892.21	-8.73512
2894.41	3.70343
2896.6	-3.23111
2898.8	-6.64056
2901	2.34863
2903.19	20.222
2905.38	4.31245
2907.58	-2.73528
2909.77	-6.2406
2911.96	9.86771
2914.15	9.89503
2916.34	4.54175
2918.53	-0.803558
2920.72	1.02942
2922.91	-0.727264
2925.09	-7.87141
2927.28	-4.20302
2929.47	-0.520325
2931.65	-4.05418
2933.83	10.4818
2936.02	-7.60579
2938.2	-5.79263
2940.38	-0.359116
2942.56	-2.18285
2944.74	19.6368
2946.92	6.85286
2949.1	10.4565
2951.28	3.13142
2953.46	-2.38206
2955.63	-7.90544
2957.81	-9.78406
2959.98	2.97142
2962.16	-13.532
2964.33	-0.748169
2966.5	8.40361
2968.68	1.06352
2970.85	19.4281
2973.02	8.41641
2975.19	4.74599
2977.36	-2.61555
2979.52	-4.45975
2981.69	8.47314
2983.86	8.52515
2986.03	-4.35942
2988.19	8.66895
2990.36	3.19255
2992.52	3.28685
2994.68	5.23448
2996.85	9.06844
2999.01	-1.99951
3001.17	-7.48683
3003.33	-16.7244
3005.49	9.64058
3007.65	-1.47487
3009.8	6.18042
3011.96	-3.12778
3014.12	-2.998
3016.27	2.82173
3018.43	2.99307
3020.58	-8.21985
3022.74	-4.28474
3024.89	1.54147
3027.04	7.35562
3029.19	-2.09946
3031.34	7.52165
3033.49	1.83629
3035.64	11.4381
3037.79	9.52951
3039.94	11.5149
3042.09	7.72385
3044.23	-1.8629
3046.38	3.92097
3048.52	5.86029
3050.67	19.3664
3052.81	3.95706
3054.95	15.5675
3057.09	2.07774
3059.24	13.7047
3061.38	13.7337
3063.51	6.01225
3065.65	9.91705
3067.79	9.94463
3069.93	15.8018
3072.07	11.9472
3074.2	2.25372
3076.34	13.977
3078.47	23.775
3080.61	10.167
3082.74	12.1635
3084.87	16.1537
3087	6.45847
3089.14	26.1776
3091.27	10.6322
3093.39	8.82437
3095.52	18.8515
3097.65	17.075
3099.78	9.36188
3101.91	13.5127
3104.03	17.6972
3106.16	27.8717
3108.28	28.1395
3110.41	24.4348
3112.53	22.7229
3114.65	31.0002
3116.77	11.2343
3118.89	13.5007
3121.01	46.0129
3123.13	34.2663
3125.25	20.4589
3127.37	30.9349
3129.49	31.3162
3131.61	25.612
3133.72	34.1707
3135.84	42.7661
3137.95	37.0253
3140.06	18.8954
