#Acq. time (s)=	30
#Accumulations=	2
#Range (cm-¹)=	1200...2365
#Windows=	3
#Auto scanning=	Off
#Autofocus=	Off
#Macrospot=	Off
#AutoExposure=	Off
#Spike filter=	Multiple accum.
#Delay time (s)=	2
#Binning=	1
#Readout mode=	Signal
#DeNoise=	Off
#ICS correction=	On
#Dark correction=	Off
#Inst. Process=	Off
#Detector Gain=	Best Dynamic
#Detector ADC=	50 kHz HS
#Detector temperature (°C)=	-60.09
#Instrument=	LabRAM HR Evol
#Detector=	SIN-EM FIVIS
#Objective=	x100_VIS_LWD
#Grating=	1800 (450-850nm)
#ND Filter=	100%
#Laser=	532nm_Edge
#Hole=	100.021
#Temperature=	0
#Range=	Visible
#StageXY=	75x50mm Scan+
#StageZ=	Z motor
#X (µm)=	0
#Y (µm)=	0
#Z (µm)=	12.5
#Full time(mm:ss)=	3:23
#Project=	21_11_26
#Sample=	BU19(2)w
#Site=	
#Title=	BU19(2)w-A-FF2-FI01-V_1800 (450-850nm)_532nm_Edge_100%_x100_VIS_LWD_H100um_30sX2
#Remark=	
#Date=	26.11.2021 14:18
#Acquired=	26.11.2021 14:18:21
#Base:Fit=	16.12.2021 16:00:56
#Base:Fit=	16.12.2021 16:10:48
#Base:Sub=	16.12.2021 16:10:49
1202.72	-4.49313
1203	-0.980164
1203.28	7.81049
1203.56	0.343956
1203.84	-0.676079
1204.11	0.480751
1204.39	1.64307
1204.67	-0.377724
1204.95	-4.54476
1205.23	13.8289
1205.5	-6.51318
1205.78	7.52444
1206.06	7.58506
1206.34	-5.23492
1206.61	-1.95602
1206.89	5.60522
1207.17	8.87126
1207.45	-3.92612
1207.73	1.49932
1208	12.274
1208.28	2.71293
1208.56	8.13134
1208.84	1.76589
1209.11	2.89153
1209.39	-2.39959
1209.67	-0.193954
1209.95	-3.32853
1210.23	4.22052
1210.5	1.06538
1210.78	4.29893
1211.06	3.25765
1211.34	0.0876694
1211.61	5.45029
1211.89	9.74821
1212.17	-0.900459
1212.45	-0.880699
1212.72	-1.91778
1213	-2.95808
1213.28	-4.00063
1213.56	5.61396
1213.83	4.58323
1214.11	-3.90971
1214.39	5.71978
1214.67	-7.01072
1214.94	3.67667
1215.22	2.64889
1215.5	8.00392
1215.78	5.90351
1216.05	-2.58849
1216.33	-2.58242
1216.61	-4.71519
1216.89	-1.53825
1217.16	-1.55124
1217.44	-2.61974
1217.72	10.1227
1218	3.7399
1218.27	-5.82079
1218.55	-6.88576
1218.83	-5.82805
1219.1	2.66444
1219.38	5.85307
1219.66	-3.69485
1219.94	-2.63646
1220.21	2.65795
1220.49	-1.58153
1220.77	1.60563
1221.04	3.72473
1221.32	-6.88831
1221.6	-9.02451
1221.88	-6.92094
1222.15	-1.6504
1222.43	3.60563
1222.71	-4.91666
1222.98	8.78967
1223.26	-2.90482
1223.54	-4.01395
1223.81	-6.17672
1224.09	-1.9936
1224.37	-5.20836
1224.65	-6.30077
1224.92	1.05706
1225.2	2.08334
1225.48	-0.0478897
1225.76	-7.44413
1226.03	-1.11916
1226.31	-6.40698
1226.59	-6.43382
1226.86	-10.6864
1227.14	-12.838
1227.42	4.00952
1227.69	7.09576
1227.97	-9.89394
1228.25	5.82356
1228.52	7.84099
1228.8	5.60741
1229.08	13.9043
1229.35	-5.05001
1229.63	1.46729
1229.91	1.64528
1230.18	-5.86533
1230.46	-2.82709
1230.74	-5.00363
1231.01	-5.0305
1231.29	-6.17598
1231.57	0.959
1231.84	-10.6217
1232.12	-14.8671
1232.4	9.25706
1232.67	-1.30434
1232.95	1.80259
1233.23	-6.65112
1233.5	10.1034
1233.78	6.90444
1234.06	-1.53934
1234.33	6.82805
1234.61	6.79172
1234.89	1.50535
1235.16	0.422737
1235.44	0.382164
1235.71	2.44435
1235.99	-4.95264
1236.27	-0.789841
1236.54	-0.842735
1236.82	3.29838
1237.1	3.22987
1237.37	0.00191498
1237.65	2.01607
1237.93	13.4775
1238.2	4.98454
1238.48	9.08945
1238.76	-8.83844
1239.03	16.2504
1239.31	3.59134
1239.58	2.47193
1239.86	2.40403
1240.14	-7.09446
1240.41	1.22989
1240.69	7.46
1240.97	5.30759
1241.24	14.6882
1241.52	2.05343
1241.79	-4.30516
1242.07	1.90519
1242.35	11.2639
1242.62	5.96521
1242.9	3.81437
1243.18	6.9118
1243.45	6.86408
1243.73	7.84854
1244	5.6907
1244.28	7.73159
1244.56	8.71546
1244.83	9.69319
1245.11	5.42607
1245.39	14.7706
1245.66	14.6774
1245.94	14.5734
1246.21	15.5174
1246.49	17.5298
1246.76	15.362
1247.04	20.5312
1247.32	13.1366
1247.59	21.4345
1247.87	17.1805
1248.14	20.2414
1248.42	24.3148
1248.7	25.2703
1248.97	14.7396
1249.25	14.6806
1249.52	27.1753
1249.8	14.5493
1250.08	16.5708
1250.35	12.3221
1250.63	9.09454
1250.9	27.8168
1251.18	15.1791
1251.45	15.0893
1251.73	19.1811
1252.01	14.9149
1252.28	13.7823
1252.56	21.0041
1252.83	18.8262
1253.11	28.1279
1253.39	20.7309
1253.66	21.6956
1253.94	16.4123
1254.21	21.5831
1254.49	25.7155
1254.76	28.8091
1255.04	21.4451
1255.31	22.4228
1255.59	26.5434
1255.87	35.8754
1256.14	34.7582
1256.42	29.4775
1256.69	40.9098
1256.97	48.1765
1257.24	57.5191
1257.52	69.9793
1257.79	74.0663
1258.07	78.1621
1258.35	73.9062
1258.62	60.2531
1258.9	51.8182
1259.17	63.1976
1259.45	64.1725
1259.72	71.4343
1260	82.8798
1260.27	73.4933
1260.55	102.619
1260.82	104.594
1261.1	123.238
1261.37	154.416
1261.65	161.613
1261.92	189.755
1262.2	224.411
1262.48	255.1
1262.75	279.326
1263.02	274.458
1263.3	282.286
1263.58	273.705
1263.85	258.358
1264.13	208.437
1264.4	181.487
1264.68	152.281
1264.95	146.832
1265.23	118.491
1265.5	106.935
1265.78	81.7757
1266.05	84.8173
1266.33	57.5909
1266.6	72.1733
1266.88	61.6886
1267.15	60.6167
1267.43	58.5067
1267.7	58.4939
1267.98	46.9778
1268.25	44.8786
1268.53	53.2651
1268.8	56.409
1269.08	63.7178
1269.35	60.5474
1269.63	35.3664
1269.9	53.1148
1270.18	53.0257
1270.45	51.876
1270.73	43.413
1271	49.6042
1271.28	44.2918
1271.55	45.2757
1271.83	65.0839
1272.1	40.978
1272.38	57.7073
1272.65	44.0931
1272.93	56.6687
1273.2	47.2326
1273.47	61.8943
1273.75	56.6495
1274.03	55.5953
1274.3	49.2979
1274.57	68.1559
1274.85	54.4802
1275.12	64.9157
1275.4	69.0653
1275.67	67.9896
1275.95	74.2677
1276.22	64.8097
1276.5	85.7992
1276.77	71.0922
1277.05	89.9832
1277.32	86.8169
1277.6	100.477
1277.87	106.79
1278.14	116.257
1278.42	120.465
1278.69	148.853
1278.97	173.073
1279.24	183.597
1279.52	203.593
1279.79	255.082
1280.07	319.177
1280.34	400.072
1280.61	512.546
1280.89	666.118
1281.16	919.659
1281.44	1268.14
1281.71	1746.36
1281.99	2348.68
1282.26	3180.15
1282.53	3972.06
1282.81	4615.77
1283.08	5053.9
1283.36	4964.02
1283.63	4451.82
1283.91	3497.02
1284.18	2563.79
1284.45	1791.37
1284.73	1215.82
1285	837.744
1285.28	601.666
1285.55	428.568
1285.83	347.286
1286.1	275.672
1286.37	248.348
1286.65	184.079
1286.92	174.522
1287.2	150.276
1287.47	147.076
1287.75	114.38
1288.02	114.316
1288.29	111.111
1288.57	87.933
1288.84	95.2819
1289.12	87.9066
1289.39	93.1771
1289.66	78.4522
1289.94	81.6248
1290.21	83.7503
1290.49	57.4284
1290.76	54.2478
1291.03	64.7439
1291.31	46.8105
1291.58	64.6949
1291.86	48.8773
1292.13	56.2266
1292.4	55.1584
1292.68	51.9934
1292.95	53.0219
1293.22	39.3038
1293.5	46.6692
1293.77	39.3317
1294.05	43.5956
1294.32	38.376
1294.59	43.6536
1294.87	38.3698
1295.14	41.5117
1295.42	42.583
1295.69	34.1963
1295.96	42.7108
1296.24	36.472
1296.51	34.4104
1296.79	29.1327
1297.06	33.3571
1297.33	24.8796
1297.61	33.3038
1297.88	24.8169
1298.15	25.8374
1298.43	13.125
1298.7	40.5946
1298.97	21.5703
1299.25	25.7689
1299.52	24.6922
1299.79	32.0576
1300.07	28.8879
1300.34	25.7442
1300.62	20.4784
1300.89	25.7616
1301.16	21.5327
1301.44	20.4732
1301.71	26.8166
1301.98	17.3376
1302.25	27.9223
1302.53	6.81158
1302.8	15.2695
1303.08	20.5539
1303.35	19.4942
1303.62	19.4855
1303.9	6.79697
1304.17	8.91119
1304.44	19.4804
1304.72	11.0408
1304.99	5.76768
1305.26	9.98557
1305.54	9.97376
1305.81	15.2335
1306.08	2.55392
1306.35	12.0315
1306.63	18.3471
1306.9	7.80162
1307.18	13.0868
1307.45	11.0011
1307.72	0.470772
1308	1.53802
1308.27	2.6064
1308.54	10.011
1308.81	1.58169
1309.09	1.60382
1309.36	9.02264
1309.63	4.83611
1309.91	11.2018
1310.18	0.677917
1310.45	9.13635
1310.73	0.705887
1311	1.78111
1311.27	2.86144
1311.55	11.3314
1311.82	-3.41775
1312.09	5.05679
1312.37	2.98758
1312.64	10.4178
1312.91	3.05792
1313.18	5.18884
1313.46	2.02802
1313.73	11.5502
1314	2.06453
1314.28	6.30443
1314.55	10.5527
1314.82	3.19784
1315.09	-0.986382
1315.37	-0.944977
1315.64	9.65611
1315.91	10.7568
1316.18	5.52066
1316.46	-6.0724
1316.73	-0.767624
1317	3.48308
1317.28	-3.88103
1317.55	-8.07327
1317.82	-2.74539
1318.09	1.52314
1318.37	-2.66172
1318.64	2.65863
1318.91	1.63912
1319.18	3.78741
1319.46	-3.57531
1319.73	-4.60007
1320	-9.84937
1320.28	13.436
1320.55	2.91034
1320.82	-3.39637
1321.09	-6.54198
1321.37	1.92244
1321.64	7.20918
1321.91	-5.45219
1322.18	5.1218
1322.46	-2.25382
1322.73	-0.117516
1323	3.07297
1323.27	5.20782
1323.55	-2.15134
1323.82	3.1758
1324.09	-2.04805
1324.36	-2.00205
1324.64	1.2024
1324.91	-4.02328
1325.18	7.61768
1325.45	1.34417
1325.73	9.79631
1326	-6.016
1326.27	-16.5586
1326.54	3.42057
1326.81	-2.87641
1327.09	17.1526
1327.36	0.404945
1327.63	5.79047
1327.9	-4.65389
1328.18	4.91667
1328.45	-2.36889
1328.72	-0.167686
1328.99	0.973083
1329.27	10.5309
1329.54	5.29417
1329.81	1.1387
1330.08	-6.19773
1330.35	0.177788
1330.63	9.7113
1330.9	1.30776
1331.17	-1.82584
1331.44	1.36055
1331.71	2.42873
1331.99	2.43758
1332.26	-0.701668
1332.53	1.43117
1332.8	4.61284
1333.07	-4.83404
1333.35	2.54915
1333.62	3.62368
1333.89	7.85297
1334.16	-2.62527
1334.43	8.95882
1334.71	7.93948
1334.98	0.624603
1335.25	8.01004
1335.52	14.3455
1335.79	11.2376
1336.07	-0.258583
1336.34	3.98211
1336.61	-4.35981
1336.88	11.417
1337.15	4.12913
1337.43	8.37606
1337.7	11.5757
1337.97	4.29167
1338.24	-1.95605
1338.51	-8.19922
1338.78	3.37428
1339.06	14.9424
1339.33	-1.75735
1339.6	1.44817
1339.87	8.84972
1340.14	1.59383
1340.42	2.71221
1340.69	0.69062
1340.96	10.1888
1341.23	6.06699
1341.5	7.1792
1341.77	-3.22992
1342.04	6.25279
1342.32	-2.06882
1342.59	1.12102
1342.86	9.53584
1343.13	6.44001
1343.4	0.22139
1343.67	4.46973
1343.95	3.49329
1344.22	8.79492
1344.49	0.503891
1344.76	1.62383
1345.03	11.1005
1345.3	5.9286
1345.58	10.1611
1345.85	1.84058
1346.12	8.15858
1346.39	2.9749
1346.66	8.21828
1346.93	3.04166
1347.2	9.34662
1347.47	4.17442
1347.75	6.30782
1348.02	7.40831
1348.29	5.38783
1348.56	6.49924
1348.83	7.61237
1349.1	8.71645
1349.37	3.56677
1349.65	10.9173
1349.92	13.0595
1350.19	11.0367
1350.46	4.85117
1350.73	4.91262
1351	11.2116
1351.27	15.4261
1351.54	12.3684
1351.81	8.26166
1352.09	9.37556
1352.36	8.41654
1352.63	5.39234
1352.9	13.8199
1353.17	12.8978
1353.44	11.959
1353.71	7.9722
1353.98	18.5824
1354.25	18.5554
1354.53	18.4625
1354.8	17.3873
1355.07	14.3687
1355.34	15.503
1355.61	23.8587
1355.88	16.6522
1356.15	14.7002
1356.42	18.952
1356.69	17.9748
1356.96	20.1277
1357.24	13.9732
1357.51	21.3193
1357.78	25.545
1358.05	24.5755
1358.32	13.2243
1358.59	23.6711
1358.86	21.6639
1359.13	19.6536
1359.4	22.8319
1359.67	32.2381
1359.94	28.1633
1360.22	23.0371
1360.49	26.2007
1360.76	17.9674
1361.03	31.5035
1361.3	15.0103
1361.57	25.4581
1361.84	24.5089
1362.11	31.8437
1362.38	31.92
1362.65	31.9976
1362.92	36.2187
1363.19	42.5188
1363.46	47.7974
1363.73	51.022
1364	55.2765
1364.28	67.8193
1364.55	48.2292
1364.82	53.4922
1365.09	54.6058
1365.36	43.2821
1365.63	44.3804
1365.9	43.4063
1366.17	48.6432
1366.44	39.3942
1366.71	47.7314
1366.98	37.4444
1367.25	45.7631
1367.52	56.1718
1367.79	68.6537
1368.06	76.006
1368.33	116.428
1368.6	201.301
1368.87	282.05
1369.15	269.763
1369.41	179.938
1369.68	120.082
1369.95	80.8658
1370.23	74.7403
1370.5	43.8088
1370.77	59.3708
1371.04	47.0494
1371.31	49.1871
1371.58	56.4744
1371.85	58.5865
1372.12	56.5601
1372.39	65.8856
1372.66	58.7093
1372.93	68.0466
1373.2	67.0869
1373.47	55.8265
1373.74	64.1507
1374.01	58.0506
1374.28	62.2584
1374.55	75.7407
1374.82	75.829
1375.09	69.7344
1375.36	80.1139
1375.63	75.0695
1375.9	76.2206
1376.17	83.5278
1376.44	80.5472
1376.71	86.7831
1376.98	94.0479
1377.25	82.7626
1377.52	79.7038
1377.79	98.3498
1378.06	93.3524
1378.33	102.795
1378.6	106.082
1378.87	100.106
1379.14	117.767
1379.41	114.768
1379.68	113.811
1379.95	128.313
1380.22	143.826
1380.49	133.527
1380.76	144.769
1381.03	155.05
1381.3	177.685
1381.57	166.517
1381.84	193.288
1382.11	196.342
1382.38	233.285
1382.65	264.058
1382.92	279.43
1383.19	307.096
1383.46	348.121
1383.73	409.628
1384	482.443
1384.27	598.314
1384.54	714.294
1384.81	904.155
1385.08	1260.3
1385.34	1687.51
1385.61	2469.25
1385.88	3731.58
1386.15	5639.12
1386.42	8323.15
1386.69	10850.5
1386.96	11774
1387.23	10020.7
1387.5	7043.58
1387.77	4336.95
1388.04	2624.86
1388.31	1702.54
1388.58	1147.08
1388.85	823.201
1389.12	632.537
1389.39	508.861
1389.66	425.842
1389.93	343.854
1390.2	304.803
1390.46	278.958
1390.73	226.633
1391	219.548
1391.27	207.228
1391.54	176.56
1391.81	162.293
1392.08	144.923
1392.35	158.282
1392.62	137.85
1392.89	137.916
1393.16	126.728
1393.43	130.901
1393.7	104.371
1393.97	119.809
1394.23	104.545
1394.5	96.4489
1394.77	98.5878
1395.04	94.5908
1395.31	87.5507
1395.58	95.8711
1395.85	98.0428
1396.12	103.274
1396.39	83.9226
1396.66	93.2233
1396.93	87.1654
1397.2	71.8976
1397.46	84.2483
1397.73	77.1604
1398	82.3627
1398.27	79.3953
1398.54	74.3955
1398.81	79.6327
1399.08	75.6546
1399.35	61.4425
1399.62	74.8736
1399.89	79.0873
1400.16	80.2297
1400.42	78.2845
1400.69	80.4571
1400.96	73.4341
1401.23	74.5798
1401.5	81.8445
1401.77	89.1365
1402.04	87.1894
1402.31	83.252
1402.58	80.3736
1402.84	79.5497
1403.11	106.404
1403.38	88.0905
1403.65	107.725
1403.92	96.5364
1404.19	87.3641
1404.46	124.303
1404.73	117.254
1404.99	123.494
1405.26	135.882
1405.53	153.382
1405.8	168.823
1406.07	192.463
1406.34	214.048
1406.61	251.021
1406.87	293.119
1407.14	328.088
1407.41	393.824
1407.68	423.696
1407.95	496.62
1408.22	563.4
1408.49	565.591
1408.76	550.351
1409.02	470.512
1409.29	388.619
1409.56	321.065
1409.83	250.422
1410.1	195.147
1410.37	161.398
1410.63	144.016
1410.9	114.32
1411.17	110.261
1411.44	93.9212
1411.71	87.8445
1411.98	70.5062
1412.25	64.4547
1412.51	53.304
1412.78	59.5917
1413.05	64.9056
1413.32	63.1235
1413.59	40.707
1413.86	50.9813
1414.12	41.6835
1414.39	33.6051
1414.66	44.0415
1414.93	50.3573
1415.2	30.9425
1415.47	41.3118
1415.73	27.0381
1416	30.2198
1416.27	23.1401
1416.54	39.6778
1416.81	21.3021
1417.07	32.7087
1417.34	29.7386
1417.61	26.767
1417.88	29.9589
1418.15	34.1727
1418.42	21.9422
1418.68	31.2922
1418.95	33.4506
1419.22	34.5768
1419.49	28.5104
1419.76	23.4579
1420.02	28.6739
1420.29	31.8312
1420.56	22.665
1420.83	24.7949
1421.1	24.87
1421.36	31.1062
1421.63	30.1669
1421.9	31.2953
1422.17	18.0722
1422.44	29.4974
1422.7	29.6281
1422.97	22.5847
1423.24	34.0806
1423.51	35.3022
1423.77	30.0007
1424.04	28.8523
1424.31	33.0767
1424.58	31.0193
1424.85	29.0654
1425.11	32.2637
1425.38	27.3045
1425.65	24.3345
1425.92	23.3895
1426.19	18.3872
1426.45	15.397
1426.72	15.4744
1426.99	3.23987
1427.26	24.8396
1427.52	15.6804
1427.79	17.7862
1428.06	20.9211
1428.33	17.9271
1428.59	16.9895
1428.86	10.9395
1429.13	18.2046
1429.4	8.06353
1429.67	15.3342
1429.93	8.26893
1430.2	18.6231
1430.47	4.39141
1430.74	10.649
1431	8.71487
1431.27	12.9443
1431.54	17.1687
1431.81	18.3014
1432.07	10.1808
1432.34	13.3349
1432.61	7.2488
1432.87	13.4813
1433.14	7.39246
1433.41	9.50244
1433.68	11.6066
1433.95	0.395935
1434.21	4.56335
1434.48	7.71615
1434.75	10.9151
1435.01	13.0699
1435.28	15.2115
1435.55	12.2257
1435.82	14.3609
1436.08	-1.94965
1436.35	3.2564
1436.62	14.6085
1436.89	9.56593
1437.15	18.8643
1437.42	1.53037
1437.69	7.76096
1437.95	9.88688
1438.22	7.92068
1438.49	6.98693
1438.76	9.13309
1439.02	7.17703
1439.29	10.3388
1439.56	4.28101
1439.82	6.42686
1440.09	0.379845
1440.36	0.483994
1440.63	0.577072
1440.89	9.89497
1441.16	5.87846
1441.43	5.96656
1441.69	7.06995
1441.96	-0.0355835
1442.23	10.2936
1442.49	4.2404
1442.76	15.6056
1443.03	-0.705276
1443.3	6.54733
1443.56	-0.560173
1443.83	10.7897
1444.1	8.81345
1444.36	10.9425
1444.63	13.0799
1444.9	7.03168
1445.16	9.18253
1445.43	3.13177
1445.7	3.20713
1445.97	7.38448
1446.23	0.277885
1446.5	4.4557
1446.77	-4.70066
1447.03	0.502022
1447.3	9.80572
1447.57	4.75081
1447.83	-0.305538
1448.1	5.91772
1448.37	3.94558
1448.63	3.01161
1448.9	2.07998
1449.17	5.2393
1449.43	1.21357
1449.7	7.43949
1449.97	-2.7471
1450.23	4.49675
1450.5	0.46172
1450.77	2.58292
1451.03	7.77958
1451.3	-3.42371
1451.57	1.77119
1451.83	7.98873
1452.1	2.93473
1452.37	11.2015
1452.63	0.00399399
1452.9	2.12912
1453.17	1.18279
1453.43	-0.783722
1453.7	2.3714
1453.97	-4.72752
1454.23	-3.63289
1454.5	2.58583
1454.77	-1.43885
1455.03	2.73364
1455.3	0.755558
1455.56	-1.22504
1455.83	0.898453
1456.1	-6.19096
1456.36	5.16136
1456.63	1.13365
1456.9	4.27471
1457.16	2.28542
1457.43	-0.727303
1457.7	-1.68473
1457.96	1.45554
1458.23	4.59685
1458.49	-5.57588
1458.76	-1.40636
1459.03	-4.406
1459.29	1.81448
1459.56	8.03398
1459.82	-1.11619
1460.09	-5.14746
1460.36	-2.00861
1460.62	7.27581
1460.89	4.2661
1461.16	-2.84244
1461.42	6.43504
1461.69	1.37418
1461.95	6.55196
1462.22	-4.65259
1462.49	-1.52538
1462.75	-3.5172
1463.02	2.67582
1463.28	-4.43249
1463.55	8.91409
1463.82	-3.30362
1464.08	-6.30678
1464.35	-3.15532
1464.61	2.05353
1464.88	3.16553
1465.15	-0.834198
1465.41	1.23016
1465.68	0.158348
1465.94	-4.93093
1466.21	-0.790348
1466.48	2.35499
1466.74	1.39202
1467.01	-6.7343
1467.27	-2.59776
1467.54	3.59254
1467.8	0.590824
1468.07	-0.370625
1468.34	-0.310802
1468.6	-5.34991
1468.87	-1.20902
1469.13	-2.17067
1469.4	1.96457
1469.67	-4.10035
1469.93	0.0281334
1470.2	-2.98337
1470.46	8.27696
1470.73	3.2329
1470.99	-7.92222
1471.26	-9.9038
1471.53	-1.70148
1471.79	-8.78257
1472.06	2.47161
1472.32	0.489613
1472.59	2.5827
1472.85	0.603199
1473.12	-4.43121
1473.39	-8.44974
1473.65	0.762539
1473.92	-0.206615
1474.18	1.87915
1474.45	-4.17387
1474.71	-2.08167
1474.98	1.03368
1475.24	-7.04811
1475.51	4.20512
1475.78	-5.91866
1476.04	-5.8676
1476.31	2.32158
1476.57	0.33609
1476.84	-0.631237
1477.1	-4.65451
1477.37	1.4938
1477.63	-3.54162
1477.9	1.59562
1478.16	0.631325
1478.43	5.76252
1478.69	-0.296169
1478.96	-4.31721
1479.22	-0.206673
1479.49	-1.17978
1479.76	-7.23375
1480.02	2.96539
1480.29	-3.0886
1480.55	1.00438
1480.82	-5.05038
1481.08	5.13793
1481.35	-1.91879
1481.61	-0.86272
1481.88	0.208218
1482.14	1.2832
1482.41	-3.72977
1482.67	-2.65297
1482.94	2.48233
1483.2	-2.54424
1483.47	-1.47227
1483.73	-0.403496
1484	-3.40046
1484.26	-0.30727
1484.53	1.74833
1484.79	-9.3956
1485.06	1.74827
1485.32	0.703812
1485.59	-5.34606
1485.85	6.79071
1486.12	-0.104103
1486.38	-2.06726
1486.65	-6.05421
1486.91	-3.02386
1487.18	4.14339
1487.44	-6.94813
1487.71	-3.87761
1487.97	7.29732
1488.24	-7.85696
1488.5	-1.74401
1488.77	-4.74797
1489.03	-2.69136
1489.3	-6.70438
1489.56	-2.61802
1489.83	-3.58998
1490.09	5.55562
1490.36	-4.51743
1490.62	5.64212
1490.89	-2.41444
1491.15	2.67474
1491.42	-6.39405
1491.68	-6.35594
1491.95	-5.30446
1492.21	-3.24013
1492.48	0.848701
1492.74	0.888897
1493	-5.13835
1493.27	-2.06565
1493.53	-2.0243
1493.8	-2.99778
1494.06	1.0845
1494.33	3.14774
1494.59	-1.86227
1494.86	3.23767
1495.12	-6.83435
1495.39	-2.75918
1495.65	3.3279
1495.92	1.32568
1496.18	-4.71072
1496.45	6.4254
1496.71	0.398216
1496.97	6.48643
1497.24	2.47924
1497.5	4.53554
1497.77	-1.48258
1498.03	0.570568
1498.3	-1.4118
1498.56	0.644497
1498.82	-1.3355
1499.09	-8.36149
1499.35	0.761112
1499.62	-2.22673
1499.88	-2.1859
1500.15	6.94083
1500.41	-1.09764
1500.68	-4.09107
1500.94	0.990486
1501.2	4.05239
1501.47	-0.965919
1501.73	2.08614
1502	-1.91938
1502.26	-1.88644
1502.52	-1.85447
1502.79	8.26458
1503.05	-8.86444
1503.32	6.289
1503.58	1.27291
1503.85	6.33732
1504.11	1.32868
1504.37	6.40895
1504.64	-0.614658
1504.9	2.44336
1505.17	-6.60262
1505.43	-0.525719
1505.7	-4.53476
1505.96	-6.53324
1506.22	5.57129
1506.49	3.58353
1506.75	-1.4243
1507.02	6.66867
1507.28	2.67755
1507.54	3.71796
1507.81	-0.279934
1508.07	-4.28107
1508.34	-0.224316
1508.6	4.84031
1508.86	3.86339
1509.13	2.88701
1509.39	0.901703
1509.66	-2.09308
1509.92	0.95834
1510.18	4.01602
1510.45	-0.990902
1510.71	2.04994
1510.98	2.06698
1511.24	0.0670891
1511.5	2.09333
1511.77	2.09802
1512.03	1.08949
1512.29	6.11503
1512.56	6.11215
1512.82	2.09512
1513.08	1.10241
1513.35	-6.91675
1513.61	2.13531
1513.88	0.14875
1514.14	6.21146
1514.4	-4.78865
1514.67	-1.74508
1514.93	-1.72594
1515.2	1.29971
1515.46	7.33317
1515.72	2.32374
1515.99	-1.68248
1516.25	3.34141
1516.51	2.35049
1516.78	5.37715
1517.04	1.38506
1517.3	7.42074
1517.57	1.42665
1517.83	3.45581
1518.09	-1.53071
1518.36	6.52468
1518.62	0.532585
1518.88	6.577
1519.15	2.59041
1519.41	2.6172
1519.67	1.64022
1519.94	4.67451
1520.2	1.68467
1520.47	5.71373
1520.73	-1.29119
1520.99	2.74537
1521.26	0.765144
1521.52	3.8006
1521.78	1.81622
1522.05	-1.17589
1522.31	-3.16722
1522.57	0.859791
1522.84	2.87914
1523.1	2.8927
1523.36	-0.105598
