#Acq. time (s)=	30
#Accumulations=	2
#Range (cm-¹)=	1200...2365
#Windows=	3
#Auto scanning=	Off
#Autofocus=	Off
#Macrospot=	Off
#AutoExposure=	Off
#Spike filter=	Multiple accum.
#Delay time (s)=	2
#Binning=	1
#Readout mode=	Signal
#DeNoise=	Off
#ICS correction=	On
#Dark correction=	Off
#Inst. Process=	Off
#Detector Gain=	Best Dynamic
#Detector ADC=	50 kHz HS
#Detector temperature (°C)=	-60.09
#Instrument=	LabRAM HR Evol
#Detector=	SIN-EM FIVIS
#Objective=	x100_VIS_LWD
#Grating=	1800 (450-850nm)
#ND Filter=	100%
#Laser=	532nm_Edge
#Hole=	100.021
#Temperature=	0
#Range=	Visible
#StageXY=	75x50mm Scan+
#StageZ=	Z motor
#X (µm)=	0
#Y (µm)=	0
#Z (µm)=	-9.7
#Full time(mm:ss)=	3:23
#Project=	21_11_26
#Sample=	BU19(2)w
#Site=	
#Title=	BU19(2)w-A-FF1-FI05-V_1800 (450-850nm)_532nm_Edge_100%_x100_VIS_LWD_H100um_30sX2
#Remark=	
#Date=	26.11.2021 13:31
#Acquired=	26.11.2021 13:31:21
#Base:Fit=	16.12.2021 16:00:56
#Base:Fit=	16.12.2021 16:07:13
#Base:Sub=	16.12.2021 16:07:14
1202.72	10.7998
1203	16.6642
1203.28	5.15173
1203.56	10.7551
1203.84	2.34322
1204.11	4.72416
1204.39	9.26133
1204.67	3.09856
1204.95	1.24087
1205.23	7.9445
1205.5	3.87605
1205.78	5.17357
1206.06	3.24062
1206.34	-1.91353
1206.61	4.73438
1206.89	2.79721
1207.17	0.861336
1207.45	5.35944
1207.73	0.230255
1208	0.455864
1208.28	1.75833
1208.56	3.05338
1208.84	6.47468
1209.11	0.268761
1209.39	-0.586342
1209.67	0.708496
1209.95	7.35561
1210.23	0.096199
1210.5	-1.83115
1210.78	1.55986
1211.06	-3.59566
1211.34	-2.33574
1211.61	2.11857
1211.89	5.50829
1212.17	0.350487
1212.45	1.59295
1212.72	-2.48396
1213	-2.30061
1213.28	-5.31562
1213.56	-6.19111
1213.83	3.58685
1214.11	0.575722
1214.39	-5.60201
1214.67	5.24992
1214.94	-0.936813
1215.22	-1.80441
1215.5	-1.61233
1215.78	-2.48792
1216.05	1.954
1216.33	-5.33208
1216.61	-8.36988
1216.89	3.4729
1217.16	-0.636284
1217.44	6.95382
1217.72	2.85569
1218	-0.180992
1218.27	-2.15023
1218.55	2.24978
1218.83	-0.781464
1219.1	1.50195
1219.38	9.09366
1219.66	7.13081
1219.94	1.9808
1220.21	-2.1139
1220.49	-5.13434
1220.77	4.57493
1221.04	0.488197
1221.32	-6.78547
1221.6	6.07955
1221.88	-6.50399
1222.15	-5.31615
1222.43	-10.4964
1222.71	8.67503
1222.98	-0.75386
1223.26	-6.9989
1223.54	6.85275
1223.81	5.89786
1224.09	1.77956
1224.37	-2.33749
1224.65	2.00545
1224.92	-6.31942
1225.2	-1.97035
1225.48	6.60912
1225.76	2.53556
1226.03	0.569496
1226.31	5.99564
1226.59	6.12194
1226.86	-10.6477
1227.14	1.07712
1227.42	9.63194
1227.69	-5.0648
1227.97	0.241615
1228.25	-0.746124
1228.52	6.68967
1228.8	-5.90653
1229.08	8.85644
1229.35	-0.489441
1229.63	-4.34695
1229.91	-0.867271
1230.18	8.64983
1230.46	-1.87073
1230.74	6.63503
1231.01	2.54515
1231.29	0.492859
1231.57	1.46434
1231.84	2.64172
1232.12	-1.45578
1232.4	2.85072
1232.67	2.94446
1232.95	-4.30797
1233.23	1.043
1233.5	4.28732
1233.78	2.28506
1234.06	5.54196
1234.33	-1.70409
1234.61	8.91031
1234.89	0.615608
1235.16	3.88044
1235.44	3.98265
1235.71	4.08576
1235.99	12.6016
1236.27	-3.069
1236.54	-2.97945
1236.82	9.71469
1237.1	0.32756
1237.37	7.75145
1237.65	9.90564
1237.93	2.60392
1238.2	0.555603
1238.48	-3.59135
1238.76	4.8523
1239.03	7.00484
1239.31	2.8752
1239.58	11.3304
1239.86	3.0134
1240.14	4.13472
1240.41	5.25827
1240.69	1.14279
1240.97	-2.9706
1241.24	3.3998
1241.52	-0.715157
1241.79	2.49572
1242.07	7.79232
1242.35	13.0934
1242.62	2.68814
1242.9	6.95731
1243.18	12.2826
1243.45	6.07671
1243.73	16.6271
1244	9.35809
1244.28	-1.05096
1244.56	11.5948
1244.83	4.31657
1245.11	11.7098
1245.39	10.7044
1245.66	2.3615
1245.94	7.6286
1246.21	13.9403
1246.49	3.51946
1246.76	8.80707
1247.04	8.86845
1247.32	8.92667
1247.59	6.88457
1247.87	3.80134
1248.14	3.84945
1248.42	11.1947
1248.7	6.00258
1248.97	13.3753
1249.25	2.97846
1249.52	8.27029
1249.8	4.13478
1250.08	5.23172
1250.35	5.28643
1250.63	3.22812
1250.9	2.21063
1251.18	9.55816
1251.45	5.41008
1251.73	8.57859
1252.01	12.7903
1252.28	2.37728
1252.56	7.63036
1252.83	13.9251
1253.11	9.77628
1253.39	11.8923
1253.66	7.75567
1253.94	17.1942
1254.21	6.82094
1254.49	6.88512
1254.76	3.8192
1255.04	2.82765
1255.31	6.00479
1255.59	12.322
1255.87	8.18852
1256.14	8.22701
1256.42	16.628
1256.69	12.5014
1256.97	13.6028
1257.24	28.273
1257.52	17.8628
1257.79	13.7108
1258.07	17.919
1258.35	15.8625
1258.62	20.0696
1258.9	19.0523
1259.17	12.8033
1259.45	18.0577
1259.72	24.3711
1260	18.1614
1260.27	6.75441
1260.55	21.3847
1260.82	30.7895
1261.1	27.6523
1261.37	38.0924
1261.65	37.0645
1261.92	35.0307
1262.2	41.4406
1262.48	36.4177
1262.75	49.0848
1263.02	50.9827
1263.3	42.5032
1263.58	41.4341
1263.85	35.3317
1264.13	34.4145
1264.4	31.4259
1264.68	27.334
1264.95	23.1118
1265.23	31.4775
1265.5	29.4185
1265.78	23.1691
1266.05	21.0903
1266.33	25.2999
1266.6	30.5633
1266.88	11.7979
1267.15	22.2994
1267.43	15.0362
1267.7	16.1389
1267.98	16.1986
1268.25	16.262
1268.53	13.1962
1268.8	24.7818
1269.08	17.4999
1269.35	13.3545
1269.63	9.20412
1269.9	16.5604
1270.18	20.755
1270.45	24.9382
1270.73	16.5659
1271	7.14733
1271.28	15.5303
1271.55	15.5502
1271.83	22.8872
1272.1	12.4579
1272.38	18.7872
1272.65	27.2187
1272.93	29.3833
1273.2	17.9157
1273.47	22.1604
1273.75	23.2635
1274.03	27.5117
1274.3	29.6646
1274.57	26.5624
1274.85	18.2011
1275.12	28.7105
1275.4	20.3444
1275.67	21.4297
1275.95	23.5704
1276.22	21.5154
1276.5	26.8138
1276.77	23.7092
1277.05	17.4544
1277.32	24.8441
1277.6	33.299
1277.87	29.149
1278.14	41.8117
1278.42	29.247
1278.69	32.4461
1278.97	36.7101
1279.24	40.9606
1279.52	49.4208
1279.79	53.6441
1280.07	63.1225
1280.34	83.1106
1280.61	107.316
1280.89	151.529
1281.16	210.48
1281.44	275.81
1281.71	374.879
1281.99	473.912
1282.26	598.129
1282.53	672.958
1282.81	737.29
1283.08	726.649
1283.36	636.842
1283.63	526.906
1283.91	402.706
1284.18	273.468
1284.45	196.931
1284.73	145.916
1285	94.3471
1285.28	81.7211
1285.55	60.5976
1285.83	54.252
1286.1	61.6468
1286.37	39.5857
1286.65	29.0757
1286.92	24.8643
1287.2	31.202
1287.47	30.1636
1287.75	30.1685
1288.02	15.4352
1288.29	18.603
1288.57	18.6237
1288.84	22.8578
1289.12	10.2578
1289.39	21.8727
1289.66	17.7025
1289.94	25.1143
1290.21	16.7335
1290.49	15.7194
1290.76	11.5272
1291.03	9.43164
1291.31	10.5014
1291.58	15.7877
1291.86	14.7553
1292.13	5.29465
1292.4	16.9024
1292.68	11.6645
1292.95	14.8404
1293.22	6.42941
1293.5	18.041
1293.77	8.61494
1294.05	16.0535
1294.32	11.9009
1294.59	0.334587
1294.87	13.0112
1295.14	16.1899
1295.42	6.73833
1295.69	7.85453
1295.96	3.70483
1296.24	13.2987
1296.51	2.79304
1296.79	8.1096
1297.06	9.19139
1297.33	7.08972
1297.61	14.4933
1297.88	9.21294
1298.15	12.3829
1298.43	9.21174
1298.7	11.3578
1298.97	14.5409
1299.25	3.98851
1299.52	5.05482
1299.79	9.28537
1300.07	10.3629
1300.34	8.29102
1300.62	8.32368
1300.89	2.01396
1301.16	5.20061
1301.44	6.27618
1301.71	4.1923
1301.98	1.06243
1302.25	11.6612
1302.53	8.5241
1302.8	1.15594
1303.08	0.122093
1303.35	2.25265
1303.62	0.154442
1303.9	7.5547
1304.17	6.51924
1304.44	-1.90229
1304.72	7.62534
1304.99	6.59216
1305.26	0.270332
1305.54	-4.99862
1305.81	14.0047
1306.08	10.8415
1306.35	1.34847
1306.63	0.301392
1306.9	-0.736252
1307.18	1.39738
1307.45	2.48431
1307.72	4.62106
1308	3.59004
1308.27	2.55953
1308.54	1.53453
1308.81	13.1563
1309.09	3.69377
1309.36	-6.81652
1309.63	-0.449745
1309.91	0.64299
1310.18	9.11938
1310.45	0.699829
1310.73	1.77528
1311	0.745949
1311.27	-0.279961
1311.55	-1.30482
1311.82	0.835762
1312.09	2.97975
1312.37	-2.25746
1312.64	-1.16346
1312.91	-2.18739
1313.18	-6.38793
1313.46	7.3507
1313.73	-2.12711
1314	-1.05207
1314.28	-5.25344
1314.55	10.6061
1314.82	3.24968
1315.09	-1.99314
1315.37	2.26746
1315.64	-1.91873
1315.91	2.34368
1316.18	-6.0676
1316.46	-0.762466
1316.73	-2.85223
1317	3.50852
1317.28	-4.91462
1317.55	7.78606
1317.82	0.433533
1318.09	1.52605
1318.37	-0.552979
1318.64	3.70432
1318.91	3.73465
1319.18	2.70695
1319.46	-2.54905
1319.73	-5.6929
1320	5.95298
1320.28	-4.57642
1320.55	-0.32074
1320.82	-1.35271
1321.09	1.83331
1321.37	6.06778
1321.64	-5.54102
1321.91	0.796249
1322.18	-1.2996
1322.46	-5.51272
1322.73	-4.4388
1323	1.90778
1323.27	6.14314
1323.55	4.04738
1323.82	-1.18455
1324.09	-0.0964127
1324.36	-8.50032
1324.64	-1.09127
1324.91	2.10378
1325.18	-3.14028
1325.45	7.44048
1325.73	1.1228
1326	1.11602
1326.27	1.09895
1326.54	-2.08639
1326.81	8.44225
1327.09	4.2584
1327.36	-0.94342
1327.63	-0.858536
1327.9	0.255333
1328.18	3.47726
1328.45	2.48781
1328.72	4.66182
1328.99	0.501488
1329.27	3.7064
1329.54	0.562965
1329.81	-2.56136
1330.08	4.85252
1330.35	4.87796
1330.63	-7.75848
1330.9	-1.41198
1331.17	0.710228
1331.44	0.718269
1331.71	-0.334373
1331.99	1.7693
1332.26	0.720619
1332.53	4.94084
1332.8	3.89555
1333.07	1.79562
1333.35	4.95393
1333.62	-1.34779
1333.89	-0.287827
1334.16	6.02573
1334.43	-1.31658
1334.71	-8.65355
1334.98	-4.43856
1335.25	8.17323
1335.52	1.89413
1335.79	-3.33296
1336.07	-1.21462
1336.34	-3.29097
1336.61	0.926125
1336.88	3.0464
1337.15	-5.31551
1337.43	2.04959
1337.7	-3.16351
1337.97	-7.32947
1338.24	0.0219193
1338.51	1.08573
1338.78	6.34579
1339.06	3.22476
1339.33	9.53353
1339.6	-2.99886
1339.87	3.32215
1340.14	2.31509
1340.42	-1.83621
1340.69	-0.750351
1340.96	10.8081
1341.23	-0.677887
1341.5	2.49606
1341.77	0.431793
1342.04	-2.68227
1342.32	-1.61179
1342.59	3.64087
1342.86	0.51577
1343.13	5.76147
1343.4	5.78593
1343.67	-6.73462
1343.95	-0.425491
1344.22	0.656281
1344.49	-3.48893
1344.76	11.1899
1345.03	-0.285011
1345.3	-5.4891
1345.58	-1.28716
1345.85	-2.31994
1346.12	1.87677
1346.39	1.88627
1346.66	3.97076
1346.93	3.98135
1347.2	-1.22261
1347.47	8.17693
1347.75	0.891571
1348.02	4.04185
1348.29	0.941841
1348.56	14.5218
1348.83	8.29977
1349.1	-0.0121078
1349.37	3.13677
1349.65	5.24191
1349.92	6.30595
1350.19	-0.960007
1350.46	7.39286
1350.73	7.41528
1351	5.35125
1351.27	2.24725
1351.54	-2.92849
1351.81	6.44983
1352.09	7.52177
1352.36	7.55899
1352.63	5.52788
1352.9	5.58488
1353.17	-0.593475
1353.44	1.5392
1353.71	12.0616
1353.98	0.717537
1354.25	5.88968
1354.53	5.80231
1354.8	6.794
1355.07	2.68661
1355.34	3.77179
1355.61	6.89867
1355.88	5.88393
1356.15	10.1077
1356.42	7.03718
1356.69	-0.213097
1356.96	13.3218
1357.24	8.16055
1357.51	9.23026
1357.78	7.18193
1358.05	8.24667
1358.32	8.27168
1358.59	9.33382
1358.86	8.32135
1359.13	8.34382
1359.4	7.32996
1359.67	8.39496
1359.94	7.38708
1360.22	11.5522
1360.49	2.23824
1360.76	6.4007
1361.03	11.6049
1361.3	9.56643
1361.57	6.49794
1361.84	17.929
1362.11	8.64234
1362.38	9.70823
1362.65	9.73922
1362.92	13.913
1363.19	23.2689
1363.46	15.0323
1363.73	13.0176
1364	5.81938
1364.28	20.3729
1364.55	19.3767
1364.82	19.4112
1365.09	9.08482
1365.36	14.2879
1365.63	13.2733
1365.9	15.3629
1366.17	19.5223
1366.44	12.2997
1366.71	13.3539
1366.98	11.3008
1367.25	17.5137
1367.52	12.3725
1367.79	15.5053
1368.06	19.6928
1368.33	23.8761
1368.6	40.4629
1368.87	61.187
1369.15	44.6951
1369.41	28.2033
1369.68	22.0479
1369.95	20.0097
1370.23	9.70255
1370.5	20.0705
1370.77	23.1871
1371.04	13.9165
1371.31	23.2389
1371.58	17.0561
1371.85	18.0989
1372.12	21.1993
1372.39	19.1405
1372.66	20.1802
1372.93	18.1344
1373.2	24.345
1373.47	31.5882
1373.74	23.3715
1374.01	22.3724
1374.28	27.5577
1374.55	35.8345
1374.82	29.6874
1375.09	23.5399
1375.36	25.6292
1375.63	24.6445
1375.9	22.6383
1376.17	25.7682
1376.44	34.0577
1376.71	33.0415
1376.98	28.9378
1377.25	42.3269
1377.52	31.0013
1377.79	43.4056
1378.06	44.507
1378.33	39.4472
1378.6	46.7575
1378.87	38.6191
1379.14	50.0212
1379.41	54.1823
1379.68	44.9294
1379.95	53.1998
1380.22	52.1843
1380.49	53.2017
1380.76	53.1406
1381.03	56.2098
1381.3	65.4583
1381.57	61.4087
1381.84	63.4719
1382.11	60.3662
1382.38	76.7779
1382.65	64.4339
1382.92	78.7961
1383.19	76.7271
1383.46	78.7781
1383.73	106.465
1384	108.525
1384.27	133.146
1384.54	157.801
1384.81	185.547
1385.08	249.218
1385.34	325.258
1385.61	473.23
1385.88	693.084
1386.15	988.987
1386.42	1399.91
1386.69	1646.75
1386.96	1596.62
1387.23	1253.58
1387.5	817.402
1387.77	517.643
1388.04	333.635
1388.31	223.062
1388.58	155.916
1388.85	129.668
1389.12	97.1218
1389.39	92.1364
1389.66	68.5746
1389.93	70.6865
1390.2	56.3075
1390.46	48.0416
1390.73	42.9117
1391	42.9487
1391.27	37.818
1391.54	35.7996
1391.81	32.7564
1392.08	37.896
1392.35	33.8111
1392.62	32.8043
1392.89	25.6602
1393.16	32.8538
1393.43	33.906
1393.7	26.7715
1393.97	30.8969
1394.23	18.6487
1394.5	27.8927
1394.77	26.904
1395.04	18.755
1395.31	19.8288
1395.58	29.0961
1395.85	24.0305
1396.12	25.0994
1396.39	20.0188
1396.66	20.0513
1396.93	15.9871
1397.2	23.1792
1397.46	25.2477
1397.73	12.9951
1398	16.0957
1398.27	20.226
1398.54	23.3411
1398.81	19.3005
1399.08	11.1622
1399.35	20.4148
1399.62	18.4239
1399.89	19.4969
1400.16	24.6632
1400.42	26.7493
1400.69	14.5187
1400.96	18.6759
1401.23	21.7985
1401.5	24.9066
1401.77	19.8372
1402.04	14.7552
1402.31	10.726
1402.58	12.8621
1402.84	13.9785
1403.11	18.1602
1403.38	20.2811
1403.65	19.3076
1403.92	19.3478
1404.19	20.3947
1404.46	14.2273
1404.73	15.3051
1404.99	27.6475
1405.26	26.649
1405.53	26.6707
1405.8	28.7424
1406.07	33.8902
1406.34	44.1632
1406.61	42.1399
1406.87	43.1945
1407.14	56.5633
1407.41	66.8617
1407.68	69.9874
1407.95	74.1354
1408.22	72.1317
1408.49	78.3305
1408.76	67.0983
1409.02	68.1722
1409.29	54.8906
1409.56	38.5282
1409.83	31.3947
1410.1	28.3607
1410.37	28.3989
1410.63	24.3148
1410.9	12.0225
1411.17	16.135
1411.44	22.3013
1411.71	12.0767
1411.98	16.2013
1412.25	16.2358
1412.51	8.08817
1412.78	8.14791
1413.05	9.25931
1413.32	12.4714
1413.59	5.36684
1413.86	9.45262
1414.12	8.36018
1414.39	11.4908
1414.66	13.6344
1414.93	8.57629
1415.2	7.58129
1415.47	7.62052
1415.73	1.49745
1416	4.61599
1416.27	15.9534
1416.54	6.75532
1416.81	8.85315
1417.07	10.9516
1417.34	9.97013
1417.61	4.87863
1417.88	4.92262
1418.15	10.1003
1418.42	0.889656
1418.68	7.09389
1418.95	4.05028
1419.22	-1.0518
1419.49	9.26231
1419.76	8.26166
1420.02	3.14558
1420.29	5.22079
1420.56	4.21528
1420.83	11.4233
1421.1	1.17483
1421.36	6.32896
1421.63	6.35724
1421.9	8.44914
1422.17	5.42413
1422.44	11.646
1422.7	4.51572
1422.97	9.72936
1423.24	3.65758
1423.51	6.84488
1423.77	10.8108
1424.04	6.57887
1424.31	5.60754
1424.58	6.59499
1424.85	3.55577
1425.11	9.759
1425.38	9.84686
1425.65	5.78775
1425.92	0.683342
1426.19	2.79221
1426.45	2.82051
1426.72	13.0976
1426.99	1.83057
1427.26	4.91991
1427.52	4.9316
1427.79	5.95937
1428.06	0.847488
1428.33	2.91713
1428.59	6.01675
1428.86	8.09808
1429.13	6.08727
1429.4	-0.0185089
1429.67	0.0217133
1429.93	5.186
1430.2	-2.96281
1430.47	4.26042
1430.74	2.25745
1431	-2.81621
1431.27	0.321373
1431.54	0.376221
1431.81	1.44596
1432.07	0.451248
1432.34	-1.58205
1432.61	-2.59234
1432.87	1.53223
1433.14	7.69563
1433.41	4.62323
1433.68	1.54955
1433.95	6.67493
1434.21	-8.67346
1434.48	6.71075
1434.75	2.67792
1435.01	2.72294
1435.28	4.80579
1435.55	0.737511
1435.82	5.88963
1436.08	3.86713
1436.35	5.94187
1436.62	1.86849
1436.89	-1.18136
1437.15	-3.20687
1437.42	1.93861
1437.69	7.08765
1437.95	1.98802
1438.22	-0.0344543
1438.49	-1.02592
1438.76	2.08618
1439.02	3.14591
1439.29	14.4464
1439.56	5.25871
1439.82	11.4468
1440.09	6.3686
1440.36	-5.88519
1440.63	5.42968
1440.89	-0.690018
1441.16	3.44099
1441.43	2.44753
1441.69	2.47028
1441.96	3.51218
1442.23	0.458305
1442.49	3.57588
1442.76	7.70726
1443.03	-0.455704
1443.3	5.71653
1443.56	6.75706
1443.83	7.7991
1444.1	0.642921
1444.36	-1.38278
1444.63	1.72375
1444.9	1.76997
1445.16	1.81316
1445.43	1.86141
1445.7	0.856438
1445.97	2.92826
1446.23	0.897095
1446.5	-2.15936
1446.77	-0.0868378
1447.03	3.01073
1447.3	8.1587
1447.57	6.12637
1447.83	5.11771
1448.1	2.06061
1448.37	7.21149
1448.63	5.199
1448.9	11.3938
1449.17	2.19267
1449.43	2.21677
1449.7	1.21052
1449.97	-2.8751
1450.23	-0.810081
1450.5	7.40498
1450.77	1.27299
1451.03	2.31729
1451.3	6.43581
1451.57	-1.74464
1451.83	-2.75168
1452.1	5.46333
1452.37	-2.71462
1452.63	0.38002
1452.9	7.57632
1453.17	0.431343
1453.43	-0.562241
1453.7	7.66576
1453.97	-3.58345
1454.23	4.63347
1454.5	2.60328
1454.77	-0.447815
1455.03	4.69875
1455.3	-3.47811
1455.56	1.66358
1455.83	-0.361809
1456.1	3.77131
1456.36	-0.299637
1456.63	1.77234
1456.9	-5.38523
1457.16	4.87362
1457.43	1.81077
1457.7	-1.24576
1457.96	0.82061
1458.23	2.88824
1458.49	0.861351
1458.76	-1.16452
1459.03	1.93375
1459.29	8.10538
1459.56	-1.09214
1459.82	0.979355
1460.09	-0.026886
1460.36	1.01418
1460.62	-2.04319
1460.89	0.0209351
1461.16	-4.06263
1461.42	-2.00196
1461.69	0.0581436
1461.95	0.0689163
1462.22	1.10177
1462.49	1.10968
1462.75	-1.95366
1463.02	0.0987244
1463.28	6.24061
1463.55	4.19798
1463.82	6.24769
1464.08	2.17496
1464.35	1.19212
1464.61	1.24136
1464.88	2.3072
1465.15	1.33331
1465.41	2.32507
1465.68	7.33005
1465.94	8.31081
1466.21	1.1787
1466.48	2.23792
1466.74	2.24983
1467.01	4.27932
1467.27	-0.812538
1467.54	-4.86953
1467.8	2.28569
1468.07	-6.88231
1468.34	-0.746883
1468.6	6.40979
1468.87	-0.714691
1469.13	0.318851
1469.4	-1.71018
1469.67	-0.681007
1469.93	3.40208
1470.2	-0.674297
1470.46	2.38788
1470.73	-1.68065
1470.99	0.36636
1471.26	1.39685
1471.53	-7.76404
1471.79	3.44468
1472.06	0.396461
1472.32	-9.7751
1472.59	-3.65178
1472.85	-1.60123
1473.12	-0.569237
1473.39	-2.59472
1473.65	3.51974
1473.92	2.50725
1474.18	2.51454
1474.45	-0.528015
1474.71	-0.513176
1474.98	-1.51031
1475.24	-6.58043
1475.51	3.61333
1475.78	8.71487
1476.04	4.65203
1476.31	-3.48331
1476.57	1.61256
1476.84	0.603703
1477.1	-3.46135
1477.37	2.64529
1477.63	-3.44828
1477.9	1.64821
1478.16	-5.45831
1478.43	-0.367271
1478.69	-5.4492
1478.96	2.68763
1479.22	-1.37417
1479.49	1.67701
1479.76	5.74183
1480.02	5.73997
1480.29	1.67612
1480.55	-4.42554
1480.82	1.65968
1481.08	-1.38464
1481.35	-2.39243
1481.61	1.66745
1481.88	-0.343395
1482.14	-4.38001
1482.41	1.73225
1482.67	-1.2877
1482.94	3.81028
1483.2	6.8677
1483.47	1.81102
1483.73	0.811493
1484	3.86962
1484.26	-3.22936
1484.53	1.833
1484.79	4.85157
1485.06	0.736683
1485.32	6.73402
1485.59	-3.4045
1485.85	5.65754
1486.12	1.77459
1486.38	2.81698
1486.65	-2.2165
1486.91	5.83152
1487.18	4.86375
1487.44	-4.23624
1487.71	-5.25652
1487.97	-0.195435
1488.24	2.84402
1488.5	5.88097
1488.77	0.813896
1489.03	0.808197
1489.3	-2.22987
1489.56	-0.203423
1489.83	-3.23459
1490.09	0.817307
1490.36	-1.19725
1490.62	-2.20067
1490.89	2.85861
1491.15	4.87718
1491.42	4.87275
1491.68	-2.20224
1491.95	2.85873
1492.21	-4.2099
1492.48	-8.24303
1492.74	2.88471
1493	-0.143383
1493.27	5.92831
1493.53	-1.1402
1493.8	-2.14737
1494.06	3.92323
1494.33	0.899429
1494.59	-3.13222
1494.86	-2.10854
1495.12	5.98428
1495.39	-1.09481
1495.65	-2.11596
1495.92	-1.12031
1496.18	1.89877
1496.45	-1.13493
1496.71	2.90185
1496.97	3.91014
1497.24	2.89864
1497.5	-1.13226
1497.77	1.90171
1498.03	0.895405
1498.3	4.93718
1498.56	5.95342
1498.82	-1.10331
1499.09	-0.0856972
1499.35	-3.10473
1499.62	-0.0666351
1499.88	6.00167
1500.15	5.00392
1500.41	-2.05491
1500.68	7.03664
1500.94	-5.07465
1501.2	8.05288
1501.47	-3.05273
1501.73	1.9873
1502	-2.04803
1502.26	1.99195
1502.52	-2.04181
1502.79	3.00253
1503.05	4.00243
1503.32	3.99422
1503.58	2.98279
1503.85	6.00068
1504.11	0.963581
1504.37	3.99943
1504.64	-0.0267982
1504.9	5.02035
1505.17	3.00483
1505.43	-0.0225906
1505.7	5.01286
1505.96	-1.04925
1506.22	4.9781
1506.49	3.96997
1506.75	1.95697
1507.02	5.99345
1507.28	-2.05389
1507.54	2.99039
1507.81	4.0046
1508.07	2.99984
1508.34	0.983524
1508.6	1.99099
1508.86	-1.02729
1509.13	-1.02187
1509.39	3.01278
1509.66	-1.01569
1509.92	-2.02062
1510.18	-2.01109
1510.45	-7.04342
1510.71	1.00972
1510.98	4.0224
1511.24	1.9952
1511.5	3.9936
1511.77	0.949753
1512.03	3.93694
1512.29	0.888168
1512.56	4.87919
1512.82	3.84847
1513.08	5.84198
1513.35	-0.196194
1513.61	2.80545
1513.88	-2.21713
1514.14	-3.20533
1514.4	3.85036
1514.67	1.84943
1514.93	4.85696
1515.2	-3.19047
1515.46	6.83455
1515.72	-4.22223
1515.99	-2.2318
1516.25	4.77312
1516.51	-1.25717
1516.78	6.76021
1517.04	-3.27139
1517.3	-1.26907
1517.57	5.74853
1517.83	4.7479
1518.09	-7.27905
1518.36	-2.25385
1518.62	-3.25295
1518.88	1.76698
1519.15	-1.23801
1519.41	3.78368
1519.67	-0.223763
1519.94	-2.227
1520.2	4.79485
1520.47	-0.227047
1520.73	-3.24069
1520.99	-3.23721
1521.26	-5.23794
1521.52	-2.22274
1521.78	2.7963
1522.05	-0.216667
1522.31	1.78408
