#Acq. time (s)=	30
#Accumulations=	2
#Range (cm-¹)=	1200...2365
#Windows=	3
#Auto scanning=	Off
#Autofocus=	Off
#Macrospot=	Off
#AutoExposure=	Off
#Spike filter=	Multiple accum.
#Delay time (s)=	2
#Binning=	1
#Readout mode=	Signal
#DeNoise=	Off
#ICS correction=	On
#Dark correction=	Off
#Inst. Process=	Off
#Detector Gain=	Best Dynamic
#Detector ADC=	50 kHz HS
#Detector temperature (°C)=	-60.28
#Instrument=	LabRAM HR Evol
#Detector=	SIN-EM FIVIS
#Objective=	x100_VIS_LWD
#Grating=	1800 (450-850nm)
#ND Filter=	100%
#Laser=	532nm_Edge
#Hole=	100.021
#Temperature=	0
#Range=	Visible
#StageXY=	75x50mm Scan+
#StageZ=	Z motor
#X (µm)=	0
#Y (µm)=	0
#Z (µm)=	-66.9
#Full time(mm:ss)=	3:24
#Project=	21_11_26
#Sample=	BU19(2)w
#Site=	
#Title=	BU19(2)w-A-FF1-FI07-V_1800 (450-850nm)_532nm_Edge_100%_x100_VIS_LWD_H100um_30sX2
#Remark=	
#Date=	26.11.2021 16:46
#Acquired=	26.11.2021 16:46:02
#Base:Fit=	16.12.2021 16:00:56
#Base:Fit=	16.12.2021 16:08:03
#Base:Sub=	16.12.2021 16:08:04
1202.72	2.96459
1203	9.71339
1203.28	6.67126
1203.56	15.3872
1203.84	16.543
1204.11	3.74358
1204.39	3.86087
1204.67	8.31481
1204.95	5.24846
1205.23	6.45274
1205.5	3.34084
1205.78	16.3372
1206.06	1.40273
1206.34	0.42923
1206.61	11.2541
1206.89	-0.445618
1207.17	1.79489
1207.45	2.96715
1207.73	4.14846
1208	3.18774
1208.28	6.51432
1208.56	11.9749
1208.84	2.44413
1209.11	1.47633
1209.39	6.92544
1209.67	0.621498
1209.95	2.87691
1210.23	7.26438
1210.5	0.951134
1210.78	-3.24023
1211.06	5.38721
1211.34	2.2701
1211.61	4.48602
1211.89	3.50453
1212.17	-2.81842
1212.45	2.59022
1212.72	2.67451
1213	-1.5058
1213.28	-0.359955
1213.56	-2.40273
1213.83	-3.37565
1214.11	-2.22677
1214.39	4.2643
1214.67	2.23607
1214.94	5.52786
1215.22	1.36408
1215.5	-1.7385
1215.78	0.479889
1216.05	0.56543
1216.33	5.95695
1216.61	-0.366341
1216.89	-2.43821
1217.16	0.807831
1217.44	-0.192711
1217.72	3.05759
1218	-0.0676727
1218.27	1.05907
1218.55	9.61561
1218.83	3.31042
1219.1	-4.04737
1219.38	2.39298
1219.66	-8.14667
1219.94	2.53016
1220.21	0.470512
1220.49	4.78546
1220.77	0.617073
1221.04	-3.55669
1221.32	-3.49215
1221.6	-3.43432
1221.88	-2.31734
1222.15	9.3879
1222.43	-12.8246
1222.71	-1.13873
1222.98	-2.16854
1223.26	-0.0227432
1223.54	1.06441
1223.81	-3.13192
1224.09	1.13159
1224.37	-5.17097
1224.65	-4.07093
1224.92	-1.91299
1225.2	2.35892
1225.48	2.41535
1225.76	-1.73988
1226.03	0.436699
1226.31	-2.66491
1226.59	-2.61357
1226.86	2.71493
1227.14	1.69841
1227.42	3.84919
1227.69	-0.358978
1227.97	-7.75681
1228.25	3.83875
1228.52	3.84335
1228.8	3.81747
1229.08	-2.49925
1229.35	-7.71073
1229.63	-5.38901
1229.91	4.30699
1230.18	-3.10414
1230.46	0.033844
1230.74	1.10513
1231.01	2.21098
1231.29	1.15623
1231.57	4.20122
1231.84	0.0545578
1232.12	3.24721
1232.4	1.18397
1232.67	1.21528
1232.95	0.202652
1233.23	2.33875
1233.5	-1.83199
1233.78	0.30513
1234.06	-0.703766
1234.33	1.44111
1234.61	-2.71767
1234.89	-3.72212
1235.16	-1.57298
1235.44	-0.481445
1235.71	0.610916
1235.99	4.85929
1236.27	5.95051
1236.54	-4.53218
1236.82	-7.66245
1237.1	3.92107
1237.37	0.782639
1237.65	2.8892
1237.93	1.84176
1238.2	9.19299
1238.48	-1.3017
1238.76	4.99523
1239.03	-3.38818
1239.31	6.0646
1239.58	-3.35431
1239.86	-1.23779
1240.14	2.9772
1240.41	3.00113
1240.69	3.02685
1240.97	3.05463
1241.24	3.08395
1241.52	1.01488
1241.79	-3.16023
1242.07	-1.05286
1242.35	1.05842
1242.62	2.1311
1242.9	-6.22507
1243.18	1.14415
1243.45	8.51445
1243.73	-12.4299
1244	4.36451
1244.28	4.39106
1244.56	5.45949
1244.83	0.233772
1245.11	2.34324
1245.39	4.44279
1245.66	7.58598
1245.94	15.9557
1246.21	-0.806137
1246.49	3.38976
1246.76	0.262169
1247.04	8.65479
1247.32	3.43776
1247.59	3.44913
1247.87	-2.81452
1248.14	11.846
1248.42	11.8315
1248.7	3.4647
1248.97	12.8902
1249.25	-0.684937
1249.52	3.52048
1249.8	11.8986
1250.08	3.54447
1250.35	12.9739
1250.63	12.9712
1250.9	1.46442
1251.18	11.9144
1251.45	4.59756
1251.73	2.50891
1252.01	0.420952
1252.28	6.68815
1252.56	9.81998
1252.83	3.55418
1253.11	10.8582
1253.39	11.8993
1253.66	9.81724
1253.94	9.83063
1254.21	8.81325
1254.49	8.8416
1254.76	7.82796
1255.04	15.1567
1255.31	5.77145
1255.59	12.0556
1255.87	7.89063
1256.14	16.2525
1256.42	6.87003
1256.69	11.0656
1256.97	13.1786
1257.24	13.1944
1257.52	20.5127
1257.79	25.7326
1258.07	22.6023
1258.35	33.048
1258.62	30.9621
1258.9	23.6535
1259.17	23.6417
1259.45	23.6503
1259.72	24.7161
1260	25.785
1260.27	23.7476
1260.55	28.954
1260.82	35.2032
1261.1	46.6533
1261.37	53.9373
1261.65	53.9272
1261.92	57.0848
1262.2	69.7404
1262.48	82.4834
1262.75	95.1453
1263.02	94.881
1263.3	113.467
1263.58	125.905
1263.85	116.716
1264.13	123.138
1264.4	97.1937
1264.68	89.9665
1264.95	76.2841
1265.23	60.5803
1265.5	45.9579
1265.78	38.6421
1266.05	31.3179
1266.33	31.3273
1266.6	29.2548
1266.88	28.2333
1267.15	20.9452
1267.43	20.9769
1267.7	22.0576
1267.98	18.9569
1268.25	17.9506
1268.53	11.7193
1268.8	22.2329
1269.08	32.7365
1269.35	20.1917
1269.63	18.1179
1269.9	24.4091
1270.18	21.2554
1270.45	22.2843
1270.73	20.1805
1271	18.075
1271.28	14.9302
1271.55	25.3994
1271.83	15.9799
1272.1	24.3683
1272.38	21.2614
1272.65	23.3923
1272.93	21.345
1273.2	17.1897
1273.47	25.6071
1273.75	17.2589
1274.03	23.5841
1274.3	23.6204
1274.57	21.5496
1274.85	19.4673
1275.12	27.866
1275.4	24.731
1275.67	23.7039
1275.95	32.1248
1276.22	23.7596
1276.5	27.9928
1276.77	32.2222
1277.05	30.1541
1277.32	31.2305
1277.6	37.5706
1277.87	44.9642
1278.14	38.6987
1278.42	39.7843
1278.69	51.3825
1278.97	52.4819
1279.24	58.8256
1279.52	64.1199
1279.79	73.5927
1280.07	88.3199
1280.34	108.297
1280.61	135.647
1280.89	172.489
1281.16	229.328
1281.44	307.276
1281.71	410.551
1281.99	567.472
1282.26	745.362
1282.53	1013.89
1282.81	1290.92
1283.08	1567.56
1283.36	1846.64
1283.63	2045.76
1283.91	1984.05
1284.18	1798.03
1284.45	1385.85
1284.73	969.568
1285	657.867
1285.28	438.698
1285.55	300.497
1285.83	223.527
1286.1	167.747
1286.37	116.213
1286.65	86.7412
1286.92	82.5161
1287.2	75.1601
1287.47	65.6919
1287.75	49.8984
1288.02	50.9461
1288.29	55.159
1288.57	22.5515
1288.84	40.4615
1289.12	39.4342
1289.39	29.9944
1289.66	39.5053
1289.94	24.8011
1290.21	19.5727
1290.49	32.2472
1290.76	25.9443
1291.03	25.9517
1291.31	22.8049
1291.58	16.5024
1291.86	22.8394
1292.13	20.7482
1292.4	19.7147
1292.68	17.633
1292.95	27.1259
1293.22	10.2876
1293.5	16.6303
1293.77	13.5179
1294.05	13.5727
1294.32	23.1183
1294.59	13.6587
1294.87	21.0609
1295.14	20.0205
1295.42	17.9481
1295.69	22.2269
1295.96	15.9646
1296.24	11.8221
1296.51	10.8208
1296.79	12.9648
1297.06	11.9315
1297.33	15.115
1297.61	13.0086
1297.88	6.67449
1298.15	10.9043
1298.43	14.073
1298.7	19.3863
1298.97	5.67323
1299.25	12.0188
1299.52	18.3649
1299.79	8.87367
1300.07	7.8407
1300.34	2.59924
1300.62	5.79811
1300.89	7.93583
1301.16	10.068
1301.44	3.7543
1301.71	12.2293
1301.98	6.98759
1302.25	7.02435
1302.53	3.88709
1302.8	4.97057
1303.08	6.05121
1303.35	10.2966
1303.62	10.3133
1303.9	5.04484
1304.17	-1.26754
1304.44	6.15178
1304.72	3.01029
1304.99	8.31536
1305.26	7.27664
1305.54	6.23409
1305.81	11.5208
1306.08	4.14343
1306.35	9.42706
1306.63	-3.2175
1306.9	6.29559
1307.18	1.05016
1307.45	3.19372
1307.72	-0.995041
1308	-2.02235
1308.27	4.33383
1308.54	-1.96211
1308.81	2.28141
1309.09	3.36901
1309.36	1.29987
1309.63	-3.93636
1309.91	1.37882
1310.18	-2.80618
1310.45	-4.88887
1310.73	-4.86311
1311	3.60934
1311.27	3.64273
1311.55	6.84339
1311.82	8.98833
1312.09	-5.75169
1312.37	2.73598
1312.64	-2.50166
1312.91	3.86981
1313.18	-1.38118
1313.46	-1.36033
1313.73	-5.55371
1314	-1.30497
1314.28	0.833206
1314.55	-1.2457
1314.82	-0.153465
1315.09	-3.2811
1315.37	-2.18432
1315.64	2.08064
1315.91	-6.3257
1316.18	-1.00308
1316.46	3.25223
1316.73	0.113068
1317	3.31214
1317.28	-0.88018
1317.55	2.32222
1317.82	-0.802025
1318.09	-0.760986
1318.37	-1.77824
1318.64	3.54136
1318.91	-6.98671
1319.18	4.66974
1319.46	-2.69202
1319.73	1.56631
1320	0.542923
1320.28	2.6964
1320.55	-5.7185
1320.82	2.76524
1321.09	2.79115
1321.37	1.75582
1321.64	1.77252
1321.91	0.731674
1322.18	4.9771
1322.46	-1.33603
1322.73	-3.41752
1323	2.93849
1323.27	-4.41565
1323.55	-1.22755
1323.82	3.03545
1324.09	2.02203
1324.36	-1.10189
1324.64	-1.06574
1324.91	-2.0808
1325.18	0.0646439
1325.45	-4.1101
1325.73	2.23772
1326	1.19151
1326.27	-8.28728
1326.54	-1.97545
1326.81	-5.11156
1327.09	4.39146
1327.36	-1.85918
1327.63	0.329964
1327.9	-0.659286
1328.18	4.67335
1328.45	6.84993
1328.72	2.70073
1328.99	-3.56608
1329.27	2.81106
1329.54	-3.48642
1329.81	5.00179
1330.08	-1.29026
1330.35	0.855804
1330.63	-3.33077
1330.9	6.1906
1331.17	-2.2199
1331.44	-2.19735
1331.71	-0.0728531
1331.99	7.31245
1332.26	4.17071
1332.53	2.08831
1332.8	-4.20327
1333.07	3.18093
1333.35	0.0447311
1333.62	6.37283
1333.89	-3.06369
1334.16	3.26459
1334.43	0.137863
1334.71	1.21407
1334.98	-2.95765
1335.25	-2.92722
1335.52	3.40018
1335.79	1.33286
1336.07	0.316208
1336.34	2.44716
1336.61	-0.664497
1336.88	-0.628822
1337.15	1.50492
1337.43	-7.89093
1337.7	0.534264
1337.97	4.76411
1338.24	1.64877
1338.51	5.86862
1338.78	-2.4756
1339.06	0.701035
1339.33	-1.35478
1339.6	-0.263908
1339.87	0.831497
1340.14	1.9283
1340.42	1.9761
1340.69	-2.16414
1340.96	8.35706
1341.23	7.35473
1341.5	4.25639
1341.77	-4.0791
1342.04	-0.898018
1342.32	5.41975
1342.59	-6.06119
1342.86	2.34122
1343.13	-8.09013
1343.4	2.40881
1343.67	7.68052
1343.95	1.45055
1344.22	3.58928
1344.49	3.63829
1344.76	-1.54314
1345.03	-1.50097
1345.3	1.67355
1345.58	-1.42893
1345.85	12.1849
1346.12	2.81102
1346.39	1.79228
1346.66	-1.32372
1346.93	-0.251625
1347.2	-0.222023
1347.47	5.02163
1347.75	4.00876
1348.02	0.91795
1348.29	2.0011
1348.56	4.12907
1348.83	5.21562
1349.1	1.08621
1349.37	9.45852
1349.65	-0.922337
1349.92	6.40583
1350.19	4.36052
1350.46	-6.0122
1350.73	3.39502
1351	9.67244
1351.27	0.340885
1351.54	4.54148
1351.81	9.77399
1352.09	-0.579643
1352.36	2.58928
1352.63	3.68744
1352.9	7.9132
1353.17	3.82362
1353.44	4.92571
1353.71	6.07566
1353.98	6.19081
1354.25	0.96936
1354.53	8.20488
1354.8	6.10561
1355.07	7.20359
1355.34	4.14339
1355.61	2.09394
1355.88	7.32652
1356.15	12.5964
1356.42	2.26389
1356.69	9.57328
1356.96	7.5406
1357.24	5.50923
1357.51	9.70849
1357.78	12.8662
1358.05	14.983
1358.32	7.75572
1358.59	11.9467
1358.86	13.0241
1359.13	10.9863
1359.4	5.83831
1359.67	5.88106
1359.94	10.0729
1360.22	12.1804
1360.49	12.2112
1360.76	6.02649
1361.03	13.3181
1361.3	11.2933
1361.57	16.5242
1361.84	10.3593
1362.11	9.37249
1362.38	15.6309
1362.65	14.6399
1362.92	10.5439
1363.19	12.6654
1363.46	21.0069
1363.73	17.9674
1364	19.0664
1364.28	18.0939
1364.55	22.29
1364.82	27.517
1365.09	29.6326
1365.36	20.3504
1365.63	16.2449
1365.9	16.2804
1366.17	23.5604
1366.44	16.3533
1366.71	13.2857
1366.98	19.5225
1367.25	17.4814
1367.52	20.6238
1367.79	21.7034
1368.06	30.0367
1368.33	26.9967
1368.6	52.899
1368.87	79.8383
1369.15	106.781
1369.41	104.781
1369.68	77.9622
1369.95	46.9837
1370.23	36.6883
1370.5	32.597
1370.77	26.4272
1371.04	23.3707
1371.31	28.5752
1371.58	26.5396
1371.85	21.403
1372.12	29.6818
1372.39	24.5442
1372.66	25.6008
1372.93	24.6021
1373.2	25.6732
1373.47	20.5631
1373.74	23.6991
1374.01	16.5319
1374.28	25.8537
1374.55	32.0842
1374.82	36.254
1375.09	27.0298
1375.36	33.254
1375.63	32.282
1375.9	40.5898
1376.17	29.3102
1376.44	25.249
1376.71	36.6123
1376.98	33.5548
1377.25	35.6376
1377.52	34.6247
1377.79	35.7203
1378.06	36.8285
1378.33	38.9805
1378.6	32.9017
1378.87	44.3455
1379.14	49.5727
1379.41	54.7787
1379.68	48.6337
1379.95	52.7963
1380.22	48.7061
1380.49	50.7756
1380.76	51.7726
1381.03	58.9786
1381.3	53.8482
1381.57	70.3781
1381.84	72.4566
1382.11	82.7296
1382.38	83.7424
1382.65	88.8729
1382.92	82.7155
1383.19	109.396
1383.46	111.456
1383.73	131.973
1384	141.222
1384.27	186.359
1384.54	217.18
1384.81	269.551
1385.08	322.992
1385.34	445.223
1385.61	596.326
1385.88	858.308
1386.15	1263.09
1386.42	1919.47
1386.69	2899.75
1386.96	3943.68
1387.23	4547.64
1387.5	4371.62
1387.77	3328.57
1388.04	2172.45
1388.31	1326
1388.58	786.376
1388.85	505.91
1389.12	349.659
1389.39	257.565
1389.66	200.144
1389.93	161.207
1390.2	137.578
1390.46	128.25
1390.73	108.755
1391	97.5252
1391.27	77.0186
1391.54	85.2603
1391.81	76.0791
1392.08	57.6619
1392.35	57.6868
1392.62	60.7882
1392.89	51.6081
1393.16	56.7665
1393.43	55.784
1393.7	48.6624
1393.97	44.6134
1394.23	50.7993
1394.5	38.5666
1394.77	38.615
1395.04	42.7578
1395.31	39.7524
1395.58	34.7048
1395.85	34.769
1396.12	28.6854
1396.39	33.8548
1396.66	41.0657
1396.93	40.0848
1397.2	29.8937
1397.46	34.0237
1397.73	26.9007
1398	39.2205
1398.27	44.3869
1398.54	29.1039
1398.81	32.2363
1399.08	34.3417
1399.35	27.2378
1399.62	34.4681
1399.89	30.4371
1400.16	25.3809
1400.42	35.6686
1400.69	31.6394
1400.96	26.5944
1401.23	23.5849
1401.5	18.5147
1401.77	30.866
1402.04	29.8939
1402.31	28.9505
1402.58	28.0248
1402.84	32.2297
1403.11	32.3202
1403.38	36.506
1403.65	33.4922
1403.92	36.6257
1404.19	35.6332
1404.46	36.662
1404.73	32.6237
1404.99	37.7979
1405.26	47.072
1405.53	48.1322
1405.8	55.344
1406.07	62.5542
1406.34	66.6882
1406.61	73.903
1406.87	88.2939
1407.14	104.752
1407.41	113.016
1407.68	146.912
1407.95	157.229
1408.22	192.152
1408.49	213.751
1408.76	224.073
1409.02	234.4
1409.29	188.327
1409.56	162.757
1409.83	130.001
1410.1	102.366
1410.37	80.8752
1410.63	63.4647
1410.9	55.2816
1411.17	44.0244
1411.44	35.8546
1411.71	28.7181
1411.98	32.8562
1412.25	26.7572
1412.51	24.7693
1412.78	26.8916
1413.05	23.914
1413.32	16.8666
1413.59	14.9037
1413.86	16.9564
1414.12	15.892
1414.39	18.0077
1414.66	15.0253
1414.93	15.1057
1415.2	14.1247
1415.47	19.3099
1415.73	14.2267
1416	16.3315
1416.27	13.3063
1416.54	15.4152
1416.81	15.4713
1417.07	14.5002
1417.34	11.4756
1417.61	9.47714
1417.88	15.6977
1418.15	8.55743
1418.42	12.7179
1418.68	7.63111
1418.95	12.8211
1419.22	10.8151
1419.49	12.9205
1419.76	15.0173
1420.02	12.999
1420.29	9.95288
1420.56	14.0984
1420.83	8.99916
1421.1	14.1678
1421.36	10.0981
1421.63	13.22
1421.9	8.13916
1422.17	13.3356
1422.44	13.4045
1422.7	9.36351
1422.97	11.4986
1423.24	15.7133
1423.51	8.60993
1423.77	8.52049
1424.04	13.5733
1424.31	16.7135
1424.58	13.6239
1424.85	7.52392
1425.11	15.7853
1425.38	13.826
1425.65	10.8035
1425.92	7.76517
1426.19	13.9863
1426.45	17.1057
1426.72	14.0632
1426.99	1.78839
1427.26	14.1221
1427.52	10.0503
1427.79	10.0725
1428.06	10.0989
1428.33	-0.104008
1428.59	7.10534
1428.86	4.07978
1429.13	7.20028
1429.4	5.20196
1429.67	7.30181
1429.93	9.40404
1430.2	9.46123
1430.47	2.34781
1430.74	9.57858
1431	5.53949
1431.27	8.68494
1431.54	7.72258
1431.81	8.8031
1432.07	8.8475
1432.34	1.69814
1432.61	-0.321487
1432.87	7.9217
1433.14	7.94892
1433.41	0.795921
1433.68	10.0414
1433.95	6.98951
1434.21	4.97145
1434.48	3.98547
1434.75	7.12614
1435.01	5.13132
1435.28	3.12734
1435.55	5.21999
1435.82	3.21213
1436.08	5.30209
1436.35	7.39061
1436.62	1.28203
1436.89	1.32019
1437.15	2.3821
1437.42	5.49286
1437.69	6.55801
1437.95	6.59404
1438.22	8.68143
1438.49	4.6296
1438.76	-1.46688
1439.02	6.77428
1439.29	3.74426
1439.56	4.81281
1439.82	0.763275
1440.09	1.84033
1440.36	0.86969
1440.63	9.11938
1440.89	5.06218
1441.16	4.07825
1441.43	6.17273
1441.69	1.08203
1441.96	7.26646
1442.23	2.17611
1442.49	2.22617
1442.76	14.5731
1443.03	5.39434
1443.3	9.52979
1443.56	6.48422
1443.83	0.36504
1444.1	7.57578
1444.36	11.7136
1444.63	7.65612
1444.9	6.68522
1445.16	6.73712
1445.43	0.636604
1445.7	2.72378
1445.97	0.706203
1446.23	2.79249
1446.5	5.90436
1446.77	4.91325
1447.03	1.87092
1447.3	3.95641
1447.57	2.96436
1447.83	-0.0796089
1448.1	-0.0463333
1448.37	3.06664
1448.63	2.08762
1448.9	0.0845909
1449.17	3.20179
1449.43	5.28975
1449.7	2.24619
1449.97	-0.799221
1450.23	2.30635
1450.5	0.285202
1450.77	4.41825
1451.03	6.50121
1451.3	3.45897
1451.57	7.59051
1451.83	5.57213
1452.1	1.50513
1452.37	5.63587
1452.63	-1.50191
1452.9	2.63265
1453.17	-0.403088
1453.43	0.662533
1453.7	-1.34729
1453.97	0.738094
1454.23	0.770206
1454.5	-0.221848
1454.77	6.9864
1455.03	3.94731
1455.3	2.95604
1455.56	1.96297
1455.83	4.04786
1456.1	-7.18231
1456.36	1.05509
1456.63	2.1142
1456.9	5.21904
1457.16	1.14591
1457.43	-0.876503
1457.7	6.32553
1457.96	6.35597
1458.23	3.31438
1458.49	2.32373
1458.76	3.38261
1459.03	4.443
1459.29	-2.69306
1459.56	-1.63409
1459.82	0.448875
1460.09	0.479939
1460.36	2.55873
1460.62	-0.485332
1460.89	-3.52937
1461.16	1.6198
1461.42	-0.402122
1461.69	3.72033
1461.95	-4.44533
1462.22	-2.3727
1462.49	0.722008
1462.75	2.79132
1463.02	1.78989
1463.28	-2.28054
1463.55	-4.30436
1463.82	-0.19186
1464.08	-0.162346
1464.35	-3.18609
1464.61	3.00222
1464.88	6.12002
1465.15	2.07783
1465.41	1.05041
1465.68	-2.0636
1465.94	-5.12865
1466.21	2.0411
1466.48	1.06417
1466.74	1.08987
1467.01	-1.96052
1467.27	-3.97665
1467.54	1.15782
1467.8	0.164249
1468.07	3.25097
1468.34	-4.88241
1468.6	-5.87411
1468.87	1.29422
1469.13	-1.73944
1469.4	2.36473
1469.67	-2.71097
1469.93	-0.651001
1470.2	1.40615
1470.46	1.42608
1470.73	0.429184
1470.99	-5.6612
1471.26	-0.541893
1471.53	-7.6507
1471.79	-1.51872
1472.06	0.539959
1472.32	6.67408
1472.59	-2.46475
1472.85	-3.45686
1473.12	1.6601
1473.39	3.72004
1473.65	1.70426
1473.92	1.72448
1474.18	-2.32504
1474.45	1.76924
1474.71	3.83083
1474.98	2.84354
1475.24	-3.23415
1475.51	-5.24324
1475.78	-3.18283
1476.04	3.96348
1476.31	-6.19271
1476.57	1.96928
1476.84	0.973564
1477.1	-3.07682
1477.37	1.01041
1477.63	-2.01897
1477.9	1.05556
1478.16	-5.02221
1478.43	-5.00163
1478.69	3.14899
1478.96	1.13408
1479.22	-0.880424
1479.49	2.18555
1479.76	1.1856
1480.02	-4.89408
1480.29	-3.86222
1480.55	-2.8366
1480.82	-4.85376
1481.08	-1.79312
1481.35	1.27073
1481.61	2.30141
1481.88	-4.77306
1482.14	-2.71448
1482.41	-0.654453
1482.67	-2.65322
1482.94	1.43689
1483.2	0.444321
1483.47	-3.58943
1483.73	4.55943
1484	3.5666
1484.26	2.5719
1484.53	0.546474
1484.79	-2.49801
1485.06	1.5364
1485.32	-5.5836
1485.59	1.50198
1485.85	2.50168
1486.12	-2.44146
1486.38	-2.409
1486.65	1.68221
1486.91	-0.367077
1487.18	5.75431
1487.44	-0.297855
1487.71	-0.288887
1487.97	-5.34187
1488.24	0.750332
1488.5	2.78939
1488.77	-3.27377
1489.03	-2.25031
1489.3	-2.23718
1489.56	-0.197578
1489.83	-1.19267
1490.09	0.847961
1490.36	-1.15575
1490.62	5.94504
1490.89	1.91283
1491.15	2.93528
1491.42	-3.12062
1491.68	0.939358
1491.95	-0.0542183
1492.21	-0.0351906
1492.48	0.996708
1492.74	-2.01875
1493	-0.991093
1493.27	1.04819
1493.53	-6.00975
1493.8	-0.939339
1494.06	-0.922398
1494.33	6.17233
1494.59	-0.882698
1494.86	3.18274
1495.12	4.2099
1495.39	1.18829
1495.65	-2.84809
1495.92	-3.85405
1496.18	3.22208
1496.45	1.21227
1496.71	1.22389
1496.97	-0.782776
1497.24	3.26619
1497.5	1.26435
1497.77	-0.737556
1498.03	-2.74135
1498.3	1.31123
1498.56	4.35591
1498.82	0.336582
1499.09	1.36372
1499.35	0.372608
1499.62	0.391552
1499.88	-0.598232
1500.15	0.430813
1500.41	-0.561306
1500.68	0.463875
1500.94	-0.531242
1501.2	4.53074
1501.47	3.53217
1501.73	2.53004
1502	3.55198
1502.26	0.538597
1502.52	-3.48426
1502.79	3.5904
1503.05	2.5874
1503.32	3.60253
1503.58	1.59531
1503.85	2.61078
1504.11	-1.40794
1504.37	-4.41492
1504.64	3.66867
1504.9	3.68325
1505.17	-0.338089
1505.43	-0.328022
1505.7	-1.32814
1505.96	1.69855
1506.22	4.72027
1506.49	2.71609
1506.75	2.72847
1507.02	6.77378
1507.28	1.75583
1507.54	-1.25211
1507.81	-4.26019
1508.07	-0.216499
1508.34	2.81674
1508.6	0.812317
1508.86	0.826046
1509.13	-0.167339
1509.39	0.853668
1509.66	2.88103
1509.92	1.8858
1510.18	7.94925
1510.45	-0.0977707
1510.71	2.92988
1510.98	-4.11815
1511.24	0.9217
1511.5	5.95708
1511.77	2.93118
1512.03	2.92075
1512.29	3.91588
1512.56	-0.113781
1512.82	2.895
1513.08	-4.13482
1513.35	-0.115135
1513.61	0.892509
1513.88	-0.103443
1514.14	0.920956
1514.4	-3.07019
1514.67	-0.0420952
1514.93	1.97316
1515.2	-0.0338478
1515.46	1.97417
1515.72	-2.04044
1515.99	-0.0344315
1516.25	2.97351
1516.51	-4.04522
1516.78	1.97832
1517.04	-0.0202484
1517.3	-4.02333
1517.57	2.00148
1517.83	1.00945
1518.09	0.019516
1518.36	-0.966461
1518.62	-1.95772
1518.88	0.0606308
1519.15	-1.93369
1519.41	-0.91785
1519.67	1.10105
1519.94	0.109024
1520.2	-0.885998
1520.47	1.12603
1520.73	-0.874008
1520.99	0.140312
1521.26	4.16623
1521.52	0.165382
1521.78	-3.83816
1522.05	2.18929
1522.31	-4.82889
