#Acq. time (s)=	30
#Accumulations=	2
#Range (cm-¹)=	1200...2365
#Windows=	3
#Auto scanning=	Off
#Autofocus=	Off
#Macrospot=	Off
#AutoExposure=	Off
#Spike filter=	Multiple accum.
#Delay time (s)=	2
#Binning=	1
#Readout mode=	Signal
#DeNoise=	Off
#ICS correction=	On
#Dark correction=	Off
#Inst. Process=	Off
#Detector Gain=	Best Dynamic
#Detector ADC=	50 kHz HS
#Detector temperature (°C)=	-60.09
#Instrument=	LabRAM HR Evol
#Detector=	SIN-EM FIVIS
#Objective=	x100_VIS_LWD
#Grating=	1800 (450-850nm)
#ND Filter=	100%
#Laser=	532nm_Edge
#Hole=	100.021
#Temperature=	0
#Range=	Visible
#StageXY=	75x50mm Scan+
#StageZ=	Z motor
#X (µm)=	0
#Y (µm)=	0
#Z (µm)=	-48.5
#Full time(mm:ss)=	3:23
#Project=	21_11_26
#Sample=	BU19(2)w
#Site=	
#Title=	BU19(2)w-A-FF2b-FI02-V_1800 (450-850nm)_532nm_Edge_100%_x100_VIS_LWD_H100um_30sX2
#Remark=	
#Date=	26.11.2021 16:13
#Acquired=	26.11.2021 16:13:37
#Base:Fit=	16.12.2021 16:00:56
#Base:Fit=	16.12.2021 16:09:28
#Base:Sub=	16.12.2021 16:09:29
1202.72	7.46678
1203	19.5936
1203.28	7.9229
1203.56	4.78136
1203.84	8.0837
1204.11	10.33
1204.39	7.20654
1204.67	8.42216
1204.95	4.2671
1205.23	17.2819
1205.5	7.70508
1205.78	4.57502
1206.06	0.367767
1206.34	12.2573
1206.61	5.90208
1206.89	2.76711
1207.17	4.9919
1207.45	0.793152
1207.73	8.38584
1208	5.26865
1208.28	3.22849
1208.56	-0.956451
1208.84	3.41058
1209.11	-2.91992
1209.39	13.2087
1209.67	3.68189
1209.95	-1.56139
1210.23	-7.87858
1210.5	-1.37766
1210.78	-3.44616
1211.06	6.23444
1211.34	-7.57392
1211.61	4.23547
1211.89	-3.16223
1212.17	4.36639
1212.45	3.36089
1212.72	-1.89891
1213	-3.96215
1213.28	4.62518
1213.56	-3.82328
1213.83	0.512718
1214.11	8.0329
1214.39	3.86308
1214.67	0.754974
1214.94	-0.227127
1215.22	5.17578
1215.5	-1.13611
1215.78	5.32517
1216.05	1.13708
1216.33	2.25618
1216.61	4.42924
1216.89	-9.35729
1217.16	-5.06116
1217.44	-3.95024
1217.72	-2.83916
1218	4.64171
1218.27	-2.74226
1218.55	1.55347
1218.83	1.60217
1219.1	-4.70978
1219.38	-6.77369
1219.66	-0.352036
1219.94	-2.42213
1220.21	5.0496
1220.49	0.863739
1220.77	-3.32016
1221.04	2.03609
1221.32	2.0845
1221.6	0.00512695
1221.88	0.0457535
1222.15	-7.34175
1222.43	1.15858
1222.71	2.23323
1222.98	-3.04765
1223.26	0.140556
1223.54	-5.13254
1223.81	1.22736
1224.09	5.47359
1224.37	-1.90246
1224.65	1.29291
1224.92	-6.06745
1225.2	4.52312
1225.48	0.341789
1225.76	3.56098
1226.03	-0.611992
1226.31	0.494858
1226.59	-3.69291
1226.86	5.84354
1227.14	1.6441
1227.42	-6.77487
1227.69	2.72015
1227.97	4.78793
1228.25	-2.59828
1228.52	-0.500481
1228.8	-0.538513
1229.08	0.487892
1229.35	-3.68827
1229.63	7.05815
1229.91	5.15673
1230.18	-5.4352
1230.46	-0.204033
1230.74	-3.36098
1231.01	4.04959
1231.29	0.87262
1231.57	-0.301956
1231.84	-3.4132
1232.12	-3.38781
1232.4	-0.211723
1232.67	-8.60048
1232.95	1.92935
1233.23	-8.55634
1233.5	-3.28656
1233.78	0.936806
1234.06	0.963951
1234.33	2.04394
1234.61	-7.38267
1234.89	4.20822
1235.16	2.14034
1235.44	7.42244
1235.71	0.0916138
1235.99	5.37711
1236.27	-5.1115
1236.54	5.41991
1236.82	5.42783
1237.1	5.43262
1237.37	7.53377
1237.65	1.21916
1237.93	3.30814
1238.2	2.246
1238.48	-0.914948
1238.76	3.26926
1239.03	2.21319
1239.31	2.21392
1239.58	4.31398
1239.86	6.41578
1240.14	-1.96227
1240.41	2.24088
1240.69	8.54213
1240.97	1.21905
1241.24	2.28313
1241.52	5.4423
1241.79	3.34965
1242.07	2.29806
1242.35	0.203812
1242.62	3.35912
1242.9	-1.8661
1243.18	3.39459
1243.45	0.269562
1243.73	1.32577
1244	-4.95456
1244.28	4.49361
1244.56	-3.88583
1244.83	4.50348
1245.11	5.55138
1245.39	5.54122
1245.66	13.9093
1245.94	-8.10828
1246.21	9.67419
1246.49	7.57496
1246.76	4.4344
1247.04	9.67448
1247.32	-1.83521
1247.59	3.39724
1247.87	3.40099
1248.14	7.58361
1248.42	12.7883
1248.7	10.6841
1248.97	5.45535
1249.25	6.51068
1249.52	8.61301
1249.8	1.29009
1250.08	15.9339
1250.35	12.8011
1250.63	4.42085
1250.9	13.8123
1251.18	8.56989
1251.45	6.46664
1251.73	11.6793
1252.01	7.48885
1252.28	2.25453
1252.56	7.46405
1252.83	12.6713
1253.11	17.8742
1253.39	5.33563
1253.66	8.46056
1253.94	1.15858
1254.21	7.43507
1254.49	14.7599
1254.76	9.561
1255.04	3.30505
1255.31	13.7488
1255.59	3.31489
1255.87	8.5379
1256.14	16.8892
1256.42	11.6737
1256.69	12.7265
1256.97	15.8744
1257.24	19.014
1257.52	24.2329
1257.79	17.954
1258.07	34.6551
1258.35	37.7806
1258.62	30.4638
1258.9	28.3652
1259.17	23.1234
1259.45	23.1222
1259.72	26.2664
1260	24.1946
1260.27	20.0593
1260.55	33.6097
1260.82	42.9796
1261.1	49.1992
1261.37	40.824
1261.65	63.7543
1261.92	65.8615
1262.2	71.2093
1262.48	89.1764
1262.75	116.482
1263.02	122.436
1263.3	143.064
1263.58	140.88
1263.85	142.137
1264.13	137.082
1264.4	117.419
1264.68	99.734
1264.95	86.0356
1265.23	59.8689
1265.5	50.4641
1265.78	49.41
1266.05	30.5818
1266.33	47.301
1266.6	27.4581
1266.88	33.7445
1267.15	27.4955
1267.43	21.2486
1267.7	27.5516
1267.98	25.4919
1268.25	16.1096
1268.53	27.6689
1268.8	23.52
1269.08	23.5422
1269.35	25.6565
1269.63	21.4811
1269.9	17.2875
1270.18	23.5553
1270.45	22.4813
1270.73	27.6988
1271	30.8176
1271.28	23.4772
1271.55	25.5673
1271.83	31.8357
1272.1	19.291
1272.38	21.4104
1272.65	23.5358
1272.93	22.5308
1273.2	28.8465
1273.47	26.7827
1273.75	31.0076
1274.03	24.7498
1274.3	25.83
1274.57	30.0475
1274.85	29.0089
1275.12	29.0101
1275.4	32.1629
1275.67	36.3766
1275.95	29.0564
1276.22	25.9327
1276.5	25.9632
1276.77	36.4864
1277.05	28.1142
1277.32	32.3361
1277.6	40.773
1277.87	33.4533
1278.14	46.0979
1278.42	47.1806
1278.69	51.4164
1278.97	45.1503
1279.24	57.7996
1279.52	71.5055
1279.79	74.6615
1280.07	79.917
1280.34	109.356
1280.61	130.391
1280.89	171.436
1281.16	213.544
1281.44	285.172
1281.71	376.86
1281.99	517.983
1282.26	744.289
1282.53	990.709
1282.81	1319.32
1283.08	1737
1283.36	2187.49
1283.63	2534.53
1283.91	2514.67
1284.18	2126.88
1284.45	1562.42
1284.73	1024.3
1285	673.62
1285.28	434.427
1285.55	300.435
1285.83	218.197
1286.1	156.097
1286.37	128.78
1286.65	92.9859
1286.92	91.9148
1287.2	80.3442
1287.47	68.7672
1287.75	51.9173
1288.02	50.8564
1288.29	51.9093
1288.57	41.3987
1288.84	29.8401
1289.12	43.5443
1289.39	31.998
1289.66	33.085
1289.94	37.3322
1290.21	28.9453
1290.49	34.2459
1290.76	26.8875
1291.03	25.8393
1291.31	23.7436
1291.58	25.865
1291.86	32.2
1292.13	29.0534
1292.4	16.4333
1292.68	19.6163
1292.95	23.8413
1293.22	14.3733
1293.5	19.6618
1293.77	15.4966
1294.05	9.22849
1294.32	10.3371
1294.59	17.7476
1294.87	14.6034
1295.14	21.9978
1295.42	20.98
1295.69	18.9299
1295.96	15.8337
1296.24	13.8055
1296.51	9.63492
1296.79	12.8354
1297.06	18.1437
1297.33	6.52878
1297.61	17.1034
1297.88	8.65429
1298.15	4.43221
1298.43	14.9934
1298.7	11.8578
1298.97	6.59315
1299.25	13.9936
1299.52	12.9487
1299.79	11.9022
1300.07	8.75802
1300.34	11.9633
1300.62	6.71667
1300.89	13.0781
1301.16	0.428329
1301.44	11.0079
1301.71	8.92517
1301.98	8.96393
1302.25	10.0581
1302.53	0.584015
1302.8	13.2876
1303.08	10.1434
1303.35	-0.398697
1303.62	-0.380608
1303.9	4.91251
1304.17	2.82443
1304.44	3.90906
1304.72	8.16004
1304.99	5.01839
1305.26	1.869
1305.54	9.27283
1305.81	0.839027
1306.08	2.96086
1306.35	4.0255
1306.63	4.03896
1306.9	6.1701
1307.18	-4.34706
1307.45	2.01645
1307.72	8.37653
1308	5.24107
1308.27	-0.00325012
1308.54	4.25009
1308.81	8.49466
1309.09	0.0914001
1309.36	7.51849
1309.63	-0.879951
1309.91	7.60369
1310.18	6.5875
1310.45	-3.93626
1310.73	-3.90887
1311	0.344513
1311.27	1.43523
1311.55	-0.63887
1311.82	5.72968
1312.09	3.65797
1312.37	-6.85252
1312.64	-3.642
1312.91	-4.65964
1313.18	0.650803
1313.46	-2.49396
1313.73	-3.51793
1314	-1.37837
1314.28	6.0397
1314.55	8.18542
1314.82	1.89194
1315.09	0.87886
1315.37	3.03509
1315.64	2.02401
1315.91	6.29404
1316.18	2.11542
1316.46	3.20473
1316.73	3.23667
1317	-3.06638
1317.28	3.30496
1317.55	0.174019
1317.82	-0.834587
1318.09	-0.790138
1318.37	-3.9168
1318.64	-9.15836
1318.91	10.954
1319.18	2.54089
1319.46	-6.93047
1319.73	4.72604
1320	6.8749
1320.28	-1.53194
1320.55	-10.9999
1320.82	1.71309
1321.09	0.685966
1321.37	-1.40203
1321.64	4.9526
1321.91	2.858
1322.18	-1.33543
1322.46	1.85023
1322.73	-7.61176
1323	-0.197197
1323.27	0.888275
1323.55	4.07862
1323.82	5.18333
1324.09	-2.15259
1324.36	2.1087
1324.64	0.0397873
1324.91	-7.29787
1325.18	-5.14831
1325.45	-1.93761
1325.73	-1.91233
1326	5.47611
1326.27	-0.843224
1326.54	-8.2159
1326.81	-3.98211
1327.09	6.57693
1327.36	-5.98189
1327.63	-5.89522
1327.9	-2.66737
1328.18	4.77769
1328.45	-0.419624
1328.72	1.76183
1328.99	-2.3898
1329.27	5.04736
1329.54	-0.191216
1329.81	4.08204
1330.08	-6.42551
1330.35	3.10995
1330.63	-1.07259
1330.9	2.12489
1331.17	0.0455704
1331.44	1.12541
1331.71	2.19868
1331.99	-4.10487
1332.26	6.44788
1332.53	-0.893745
1332.8	5.44624
1333.07	-0.843102
1333.35	-0.819443
1333.62	-1.84504
1333.89	4.48756
1334.16	2.41364
1334.43	3.49242
1334.71	4.57212
1334.98	-2.74512
1335.25	-4.80917
1335.52	-1.62469
1335.79	-0.539078
1336.07	1.59611
1336.34	6.87794
1336.61	4.81909
1336.88	-1.43177
1337.15	-1.38961
1337.43	-1.34592
1337.7	3.93941
1337.97	0.8377
1338.24	-3.31969
1338.51	-5.37916
1338.78	1.99422
1339.06	0.986275
1339.33	5.21833
1339.6	-4.15635
1339.87	-3.05542
1340.14	1.18848
1340.42	0.194771
1340.69	4.43819
1340.96	-0.743866
1341.23	8.73222
1341.5	-0.643921
1341.77	6.73366
1342.04	-0.551346
1342.32	-1.55637
1342.59	7.90226
1342.86	0.610535
1343.13	1.6918
1343.4	-3.49444
1343.67	-2.40017
1343.95	-8.62402
1344.22	7.1165
1344.49	5.07983
1344.76	7.22534
1345.03	5.18089
1345.3	-0.0049057
1345.58	2.12521
1345.85	7.38278
1346.12	2.19453
1346.39	1.18113
1346.66	0.157936
1346.93	1.23477
1347.2	5.44226
1347.47	2.34589
1347.75	6.55241
1348.02	4.50922
1348.29	4.55538
1348.56	-2.69116
1348.83	-0.555977
1349.1	3.65736
1349.37	8.90948
1349.65	2.7009
1349.92	-0.380119
1350.19	0.705261
1350.46	-0.291504
1350.73	12.2431
1351	3.95535
1351.27	3.99407
1351.54	1.95881
1351.81	13.4372
1352.09	-0.0301361
1352.36	0.0255585
1352.63	1.13006
1352.9	7.44254
1353.17	6.48142
1353.44	7.59073
1353.71	9.793
1353.98	12.0053
1354.25	10.9486
1354.53	5.69219
1354.8	4.63825
1355.07	5.74281
1355.34	7.88475
1355.61	5.83958
1355.88	5.88463
1356.15	8.04455
1356.42	10.1865
1356.69	6.07345
1356.96	13.3956
1357.24	13.4472
1357.51	10.3825
1357.78	8.35448
1358.05	10.4781
1358.32	6.3718
1358.59	6.41772
1358.86	10.6152
1359.13	13.7713
1359.4	6.55433
1359.67	19.0486
1359.94	15.9861
1360.22	12.9145
1360.49	11.9145
1360.76	17.1333
1361.03	5.78215
1361.3	22.4097
1361.57	10.0377
1361.84	16.3093
1362.11	10.1498
1362.38	14.3432
1362.65	18.5363
1362.92	20.6589
1363.19	14.5035
1363.46	21.8164
1363.73	17.7485
1364	16.7829
1364.28	27.2117
1364.55	32.4502
1364.82	28.3608
1365.09	29.447
1365.36	25.3487
1365.63	29.5305
1365.9	15.0784
1366.17	21.33
1366.44	20.337
1366.71	26.5836
1366.98	19.3801
1367.25	28.7156
1367.52	21.5273
1367.79	26.7469
1368.06	24.7521
1368.33	32.0551
1368.6	40.3913
1368.87	81.8095
1369.15	133.571
1369.41	126.41
1369.68	84.0902
1369.95	50.0158
1370.23	38.6927
1370.5	29.4394
1370.77	24.3098
1371.04	22.2932
1371.31	25.438
1371.58	32.7043
1371.85	30.6689
1372.12	29.6617
1372.39	27.6249
1372.66	36.9366
1372.93	28.7238
1373.2	37.0164
1373.47	37.0647
1373.74	32.991
1374.01	34.073
1374.28	40.3086
1374.55	35.2112
1374.82	30.115
1375.09	35.3201
1375.36	40.5196
1375.63	39.5545
1375.9	39.6284
1376.17	37.627
1376.44	46.9662
1376.71	47.0002
1376.98	48.0652
1377.25	48.0904
1377.52	51.194
1377.79	51.2694
1378.06	43.1243
1378.33	52.4946
1378.6	52.6115
1378.87	59.9504
1379.14	59.0009
1379.41	71.4299
1379.68	73.5359
1379.95	62.2406
1380.22	81.8559
1380.49	65.3759
1380.76	80.7755
1381.03	80.7725
1381.3	81.8101
1381.57	91.1514
1381.84	98.3721
1382.11	104.527
1382.38	98.3438
1382.65	111.689
1382.92	117.847
1383.19	123.998
1383.46	137.344
1383.73	172.216
1384	171.211
1384.27	205.072
1384.54	238.976
1384.81	298.533
1385.08	349.935
1385.34	443.457
1385.61	591.489
1385.88	875.032
1386.15	1314.73
1386.42	1968.05
1386.69	3177.37
1386.96	4706.15
1387.23	5815.46
1387.5	5251.52
1387.77	3554.27
1388.04	2121.66
1388.31	1209.83
1388.58	747.85
1388.85	474.506
1389.12	344.903
1389.39	263.08
1389.66	212.854
1389.93	158.52
1390.2	137.978
1390.46	126.603
1390.73	109.165
1391	92.814
1391.27	93.8387
1391.54	79.5379
1391.81	80.6108
1392.08	81.6646
1392.35	67.349
1392.62	57.1413
1392.89	55.1346
1393.16	61.3221
1393.43	55.2267
1393.7	55.2757
1393.97	61.4663
1394.23	50.2596
1394.5	52.3588
1394.77	43.2031
1395.04	46.3283
1395.31	48.4459
1395.58	40.3355
1395.85	36.312
1396.12	39.4472
1396.39	39.504
1396.66	42.6259
1396.93	38.5802
1397.2	36.5812
1397.46	36.623
1397.73	40.7571
1398	39.7846
1398.27	33.7057
1398.54	34.7939
1398.81	37.9328
1399.08	29.8136
1399.35	38.0622
1399.62	39.1605
1399.89	36.1591
1400.16	35.2033
1400.42	35.2614
1400.69	24.0721
1400.96	30.2943
1401.23	34.4593
1401.5	34.5143
1401.77	36.6319
1402.04	38.7376
1402.31	41.901
1402.58	30.7383
1402.84	37.0025
1403.11	29.9182
1403.38	33.0826
1403.65	40.3402
1403.92	39.3726
1404.19	44.5432
1404.46	40.4423
1404.73	44.6182
1404.99	51.8484
1405.26	52.9195
1405.53	53.9837
1405.8	66.3267
1406.07	60.2115
1406.34	74.602
1406.61	86.9461
1406.87	96.2164
1407.14	115.755
1407.41	131.201
1407.68	155.877
1407.95	193.88
1408.22	226.761
1408.49	266.823
1408.76	294.585
1409.02	275.183
1409.29	227.068
1409.56	187.147
1409.83	144.141
1410.1	121.641
1410.37	80.6647
1410.63	77.6176
1410.9	58.1564
1411.17	44.8527
1411.44	42.8361
1411.71	39.8016
1411.98	32.6734
1412.25	30.6771
1412.51	28.6947
1412.78	26.7235
1413.05	27.8535
1413.32	26.9777
1413.59	25.0263
1413.86	19.8887
1414.12	14.7225
1414.39	21.9704
1414.66	16.9436
1414.93	21.1368
1415.2	16.0535
1415.47	15.0834
1415.73	17.1914
1416	16.2207
1416.27	11.1465
1416.54	17.3673
1416.81	13.3201
1417.07	7.21777
1417.34	15.4965
1417.61	21.722
1417.88	13.5636
1418.15	13.6205
1418.42	13.6752
1418.68	19.8966
1418.95	19.9532
1419.22	10.7577
1419.49	18.006
1419.76	14.9683
1420.02	11.9266
1420.29	18.1297
1420.56	13.0343
1420.83	7.93922
1421.1	11.0588
1421.36	16.2315
1421.63	17.3041
1421.9	11.2012
1422.17	13.3227
1422.44	13.396
1422.7	13.4689
1422.97	15.6108
1423.24	5.43005
1423.51	17.8876
1423.77	7.50457
1424.04	18.7125
1424.31	16.7308
1424.58	14.6686
1424.85	14.7196
1425.11	15.8134
1425.38	20.0117
1425.65	11.8656
1425.92	18.0605
1426.19	15.0562
1426.45	13.0501
1426.72	14.1144
1426.99	5.94447
1427.26	16.2302
1427.52	13.186
1427.79	6.03912
1428.06	11.1905
1428.33	11.2301
1428.59	9.22741
1428.86	6.20539
1429.13	2.16185
1429.4	1.19064
1429.67	7.39023
1429.93	5.39866
1430.2	8.5322
1430.47	1.42214
1430.74	8.65622
1431	10.7727
1431.27	8.795
1431.54	5.78386
1431.81	6.86744
1432.07	-2.32235
1432.34	9.00482
1432.61	2.88262
1432.87	7.02509
1433.14	8.08096
1433.41	9.13174
1433.68	7.10462
1433.95	10.2025
1434.21	5.11428
1434.48	2.08326
1434.75	10.3487
1435.01	6.30838
1435.28	9.43105
1435.55	6.40303
1435.82	9.52159
1436.08	6.49077
1436.35	2.43432
1436.62	5.54978
1436.89	2.51692
1437.15	7.67891
1437.42	5.67048
1437.69	4.68982
1437.95	8.8253
1438.22	-0.350033
1438.49	0.72121
1438.76	0.772892
1439.02	5.94366
1439.29	13.161
1439.56	3.98738
1439.82	12.2367
1440.09	5.11972
1440.36	8.25365
1440.63	1.12649
1440.89	6.30013
1441.16	2.24232
1441.43	2.28812
1441.69	3.35268
1441.96	4.4126
1442.23	0.349964
1442.49	1.42754
1442.76	4.54776
1443.03	2.54898
1443.3	0.533749
1443.56	4.6693
1443.83	1.62814
1444.1	2.6901
1444.36	5.80512
1444.63	4.82494
1444.9	11.0338
1445.16	9.03762
1445.43	3.96622
1445.7	4.0032
1445.97	8.14275
1446.23	-2.07919
1446.5	6.16358
1446.77	3.12306
1447.03	9.31292
1447.3	7.29772
1447.57	6.30718
1447.83	9.41627
1448.1	-0.801403
1448.37	5.38894
1448.63	2.36155
1448.9	4.46292
1449.17	9.63355
1449.43	5.56924
1449.7	7.65521
1449.97	5.63618
1450.23	4.64113
1450.5	2.62114
1450.77	3.68041
1451.03	1.6651
1451.3	5.79902
1451.57	1.73334
1451.83	-1.30775
1452.1	3.84898
1452.37	7.98098
1452.63	8.01616
1452.9	-2.19112
1453.17	5.02023
1453.43	0.964443
1453.7	2.03054
1453.97	1.04285
1454.23	-3.02282
1454.5	3.15956
1454.77	-0.902729
1455.03	-0.86644
1455.3	8.39061
1455.56	4.32449
1455.83	1.28735
1456.1	3.38096
1456.36	6.49592
1456.63	-1.66835
1456.9	-1.63675
1457.16	5.5639
1457.43	1.49269
1457.7	-0.524651
1457.96	3.60482
1458.23	-2.50882
1458.49	-0.425385
1458.76	4.73206
1459.03	5.79351
1459.29	1.73207
1459.56	0.742989
1459.82	-2.29605
1460.09	-0.214947
1460.36	1.86468
1460.62	3.94359
1460.89	11.1435
1461.16	-1.12036
1461.42	0.955196
1461.69	-4.1378
1461.95	-3.0871
1462.22	4.10431
1462.49	1.05738
1462.75	-3.01268
1463.02	1.10304
1463.28	0.101788
1463.55	6.25879
1463.82	-4.9666
1464.08	0.175468
1464.35	-7.96093
1464.61	0.272324
1464.88	-0.704281
1465.15	0.371204
1465.41	0.368237
1465.68	-6.83099
1465.94	1.33406
1466.21	2.3806
1466.48	0.383533
1466.74	-0.611145
1467.01	-1.62024
1467.27	6.56517
1467.54	1.49863
1467.8	-0.514919
1468.07	-2.52851
1468.34	1.57935
1468.6	0.587742
1468.87	0.615864
1469.13	0.6423
1469.4	1.68666
1469.67	-2.36916
1469.93	4.78857
1470.2	-0.290981
1470.46	-6.38571
1470.73	-2.28655
1470.99	-1.2444
1471.26	-3.25725
1471.53	1.8585
1471.79	-0.159492
1472.06	4.95393
1472.32	2.94128
1472.59	-1.10625
1472.85	-0.0620804
1473.12	5.05462
1473.39	-2.04907
1473.65	-8.13626
1473.92	-2.00787
1474.18	1.0668
1474.45	-0.945347
1474.71	2.13363
1474.98	-0.889519
1475.24	-0.860825
1475.51	-1.85235
1475.78	2.24322
1476.04	-2.82391
1476.31	-1.7863
1476.57	2.30489
1476.84	-1.74351
1477.1	1.32668
1477.37	-2.72397
1477.63	-1.68558
1477.9	-6.74727
1478.16	-2.65599
1478.43	5.49836
1478.69	-2.61982
1478.96	-0.5686
1479.22	-2.58353
1479.49	0.482021
1479.76	-1.53434
1480.02	-1.51959
1480.29	-2.52033
1480.55	0.534317
1480.82	-3.5145
1481.08	-0.454952
1481.35	-3.47977
1481.61	0.594242
1481.88	-1.4083
1482.14	1.66488
1482.41	1.69525
1482.67	-4.36415
1482.94	-3.32084
1483.2	-3.29896
1483.47	-5.30315
1483.73	-7.30989
1484	0.835583
1484.26	-0.159954
1484.53	-1.17046
1484.79	-2.18637
1485.06	-0.180798
1485.32	1.80808
1485.59	-0.215328
1485.85	2.80573
1486.12	0.903244
1486.38	3.97603
1486.65	1.98614
1486.91	-1.078
1487.18	6.05554
1487.44	-3.03776
1487.71	2.03619
1487.97	1.03288
1488.24	-6.04259
1488.5	0.046566
1488.77	3.09386
1489.03	-6.00671
1489.3	2.1012
1489.56	-0.920082
1489.83	-4.95163
1490.09	-5.94706
1490.36	1.15296
1490.62	0.159206
1490.89	5.23009
1491.15	1.19376
1491.42	5.2481
1491.68	-0.804573
1491.95	-1.79947
1492.21	5.29518
1492.48	-4.79556
1492.74	-1.74617
1493	-3.75288
1493.27	-4.74777
1493.53	-2.70879
1493.8	2.35988
1494.06	-2.67894
1494.33	2.39259
1494.59	-2.64234
1494.86	0.410496
1495.12	1.4362
1495.39	-1.58665
1495.65	4.48104
1495.92	-1.58011
1496.18	-0.565609
1496.45	1.46223
1496.71	3.49119
1496.97	0.473091
1497.24	-0.526302
1497.5	1.50733
1497.77	-1.50554
1498.03	0.525841
1498.3	4.57664
1498.56	2.57361
1498.82	-5.48438
1499.09	1.59641
1499.35	-2.42435
1499.62	0.620819
1499.88	0.638809
1500.15	0.656673
1500.41	2.69155
1500.68	1.69571
1500.94	-1.32041
1501.2	3.73973
1501.47	0.720467
1501.73	-0.28315
1502	-1.28132
1502.26	2.76746
1502.52	-2.26651
1502.79	0.770027
1503.05	3.80068
1503.32	-2.24671
1503.58	4.82101
1503.85	-0.215996
1504.11	-0.203506
1504.37	1.82969
1504.64	-1.18127
1504.9	-6.21099
1505.17	-1.1583
1505.43	-0.141972
1505.7	-1.14429
1505.96	1.88007
1506.22	-2.15331
1506.49	0.878105
1506.75	-3.14128
1507.02	0.901699
1507.28	1.9266
1507.54	4.9625
1507.81	-0.0627937
1508.07	-0.0520744
1508.34	-1.05157
1508.6	-2.05044
1508.86	1.99145
1509.13	-0.0116768
1509.39	-0.000511169
1509.66	3.03227
1509.92	2.03481
1510.18	2.04967
1510.45	-1.96867
1510.71	4.07978
1510.98	-1.96347
1511.24	3.07343
1511.5	-0.956635
1511.77	2.05672
1512.03	-4.99803
1512.29	0.0203552
1512.56	-3.00517
1512.82	-2.00705
1513.08	0.000717163
1513.35	2.00873
1513.61	-1.00216
1513.88	-0.996574
1514.14	0.0254478
1514.4	0.0496979
1514.67	3.07579
1514.93	-8.97383
1515.2	2.07367
1515.46	1.06667
1515.72	-4.95777
1515.99	5.07352
1516.25	4.06488
1516.51	1.05481
1516.78	3.06416
1517.04	-3.95059
1517.3	5.07846
1517.57	1.0743
1517.83	3.08771
1518.09	1.09278
1518.36	3.11334
1518.62	-2.8949
1518.88	2.12999
1519.15	1.1364
1519.41	-1.86262
1519.67	-2.85604
1519.94	0.162445
1520.2	-3.845
1520.47	-2.83856
1520.73	0.174652
1520.99	1.18652
1521.26	0.193615
1521.52	-2.80671
1521.78	-3.80269
1522.05	-2.79476
1522.31	-3.79549
1522.57	3.22857
