#Acq. time (s)=	30
#Accumulations=	2
#Range (cm-¹)=	1200...2365
#Windows=	3
#Auto scanning=	Off
#Autofocus=	Off
#Macrospot=	Off
#AutoExposure=	Off
#Spike filter=	Multiple accum.
#Delay time (s)=	2
#Binning=	1
#Readout mode=	Signal
#DeNoise=	Off
#ICS correction=	On
#Dark correction=	Off
#Inst. Process=	Off
#Detector Gain=	Best Dynamic
#Detector ADC=	50 kHz HS
#Detector temperature (°C)=	-60.09
#Instrument=	LabRAM HR Evol
#Detector=	SIN-EM FIVIS
#Objective=	x100_VIS_LWD
#Grating=	1800 (450-850nm)
#ND Filter=	100%
#Laser=	532nm_Edge
#Hole=	100.021
#Temperature=	0
#Range=	Visible
#StageXY=	75x50mm Scan+
#StageZ=	Z motor
#X (µm)=	0
#Y (µm)=	0
#Z (µm)=	-63.9
#Full time(mm:ss)=	3:23
#Project=	21_11_26
#Sample=	BU19(2)w
#Site=	
#Title=	BU19(2)w-A-FF1-FI08-V_1800 (450-850nm)_532nm_Edge_100%_x100_VIS_LWD_H100um_30sX2
#Remark=	
#Date=	26.11.2021 16:41
#Acquired=	26.11.2021 16:41:21
#Base:Fit=	16.12.2021 16:00:56
#Base:Fit=	16.12.2021 16:08:27
#Base:Sub=	16.12.2021 16:08:29
1202.72	16.3835
1203	11.1794
1203.28	5.86475
1203.56	8.00878
1203.84	24.1209
1204.11	4.75426
1204.39	15.5092
1204.67	14.4759
1204.95	10.2226
1205.23	8.09095
1205.5	10.2416
1205.78	7.01644
1206.06	5.93569
1206.34	11.2921
1206.61	14.4986
1206.89	12.3409
1207.17	3.75512
1207.45	9.10716
1207.73	6.97064
1208	11.259
1208.28	11.2703
1208.56	2.71542
1208.84	10.2045
1209.11	6.99502
1209.39	12.3422
1209.67	5.93806
1209.95	12.3706
1210.23	2.76143
1210.5	-0.441811
1210.78	11.2969
1211.06	0.59993
1211.34	4.86252
1211.61	-4.7568
1211.89	1.63876
1212.17	6.95454
1212.45	8.00273
1212.72	-1.59841
1213	2.65462
1213.28	-1.61731
1213.56	0.509392
1213.83	4.77007
1214.11	9.02169
1214.39	0.519119
1214.67	1.59628
1214.94	1.60635
1215.22	3.74346
1215.5	1.61893
1215.78	2.68678
1216.05	-1.57094
1216.33	5.86514
1216.61	-5.86097
1216.89	-3.76012
1217.16	2.5927
1217.44	-0.615669
1217.72	1.49036
1218	7.84262
1218.27	4.64005
1218.55	0.377686
1218.83	-6.00486
1219.1	-4.95097
1219.38	-0.710976
1219.66	-1.77901
1219.94	-0.727875
1220.21	-2.8635
1220.49	-2.86701
1220.77	3.49562
1221.04	-6.05614
1221.32	2.41815
1221.6	-0.7798
1221.88	7.6841
1222.15	7.6558
1222.43	-6.15336
1222.71	-3.01366
1222.98	5.4113
1223.26	2.1932
1223.54	-1.02064
1223.81	-7.3999
1224.09	-3.20425
1224.37	0.987923
1224.65	-1.15009
1224.92	1.99541
1225.2	0.921715
1225.48	4.07848
1225.76	-1.19794
1226.03	-7.53299
1226.31	0.915154
1226.59	-12.8247
1226.86	-3.33622
1227.14	-0.192833
1227.42	0.839645
1227.69	2.89896
1227.97	3.86519
1228.25	0.645714
1228.52	-1.51485
1228.8	-1.59818
1229.08	2.5359
1229.35	8.82265
1229.63	-4.66814
1229.91	-7.69105
1230.18	-1.44156
1230.46	1.63485
1230.74	-2.61864
1231.01	-3.67625
1231.29	-1.62723
1231.57	4.51396
1231.84	-3.8908
1232.12	-4.95628
1232.4	6.58649
1232.67	2.36019
1232.95	3.3952
1233.23	-2.92672
1233.5	-6.0994
1233.78	1.23776
1234.06	-0.873154
1234.33	-1.93111
1234.61	12.7719
1234.89	-1.9414
1235.16	3.31167
1235.44	-0.900986
1235.71	-4.06237
1235.99	1.18845
1236.27	1.17989
1236.54	4.3176
1236.82	1.13825
1237.1	-2.04291
1237.37	-3.12583
1237.65	-1.06556
1237.93	6.24233
1238.2	-2.2016
1238.48	3.0023
1238.76	5.05542
1239.03	-1.27567
1239.31	1.84083
1239.58	-8.67001
1239.86	3.88648
1240.14	-1.37593
1240.41	2.79842
1240.69	5.92673
1240.97	0.672058
1241.24	4.85337
1241.52	3.79231
1241.79	4.81717
1242.07	3.73811
1242.35	7.90441
1242.62	1.60252
1242.9	-3.64838
1243.18	-3.65369
1243.45	5.77493
1243.73	-0.531647
1244	0.501579
1244.28	2.58772
1244.56	3.61931
1244.83	0.453468
1245.11	0.430016
1245.39	5.63694
1245.66	10.8385
1245.94	1.36631
1246.21	6.55898
1246.49	-0.796143
1246.76	2.32249
1247.04	8.58803
1247.32	4.38425
1247.59	2.26884
1247.87	11.6716
1248.14	5.36795
1248.42	13.6906
1248.7	9.47424
1248.97	3.18014
1249.25	7.35415
1249.52	1.07019
1249.8	2.0963
1250.08	8.35456
1250.35	7.29544
1250.63	-0.0564957
1250.9	5.13616
1251.18	-2.21271
1251.45	5.07312
1251.73	6.08949
1252.01	11.2842
1252.28	3.94342
1252.56	14.3571
1252.83	2.84222
1253.11	9.07463
1253.39	-2.43477
1253.66	9.02345
1253.94	12.1417
1254.21	18.4059
1254.49	0.666161
1254.76	13.2004
1255.04	13.1963
1255.31	5.87506
1255.59	7.9585
1255.87	21.5223
1256.14	16.2849
1256.42	17.3222
1256.69	13.1414
1256.97	22.5444
1257.24	13.1376
1257.52	21.4781
1257.79	38.1628
1258.07	37.0978
1258.35	34.9905
1258.62	41.2355
1258.9	29.7285
1259.17	31.7807
1259.45	33.8559
1259.72	25.5093
1260	28.6476
1260.27	37.0386
1260.55	47.4413
1260.82	48.4462
1261.1	52.5658
1261.37	66.0878
1261.65	66.0564
1261.92	72.3285
1262.2	84.9858
1262.48	99.831
1262.75	110.398
1263.02	123.659
1263.3	145.316
1263.58	143.121
1263.85	136.027
1264.13	122.606
1264.4	103.971
1264.68	91.5043
1264.95	76.7561
1265.23	65.2159
1265.5	53.7141
1265.78	61.0132
1266.05	34.8616
1266.33	28.5875
1266.6	30.6811
1266.88	47.4133
1267.15	35.9355
1267.43	31.7768
1267.7	32.8493
1267.98	22.4181
1268.25	31.867
1268.53	26.6795
1268.8	26.7159
1269.08	26.7348
1269.35	21.512
1269.63	37.2402
1269.9	30.9456
1270.18	30.9203
1270.45	26.6971
1270.73	34.0027
1271	26.6481
1271.28	31.8624
1271.55	28.7158
1271.83	26.6092
1272.1	22.4323
1272.38	25.5968
1272.65	26.6747
1272.93	30.9063
1273.2	24.651
1273.47	28.8719
1273.75	35.1922
1274.03	31.0311
1274.3	35.258
1274.57	37.3778
1274.85	26.8971
1275.12	33.1897
1275.4	34.2428
1275.67	34.2594
1275.95	34.2823
1276.22	38.5044
1276.5	34.339
1276.77	34.3649
1277.05	46.9927
1277.32	38.6146
1277.6	47.0531
1277.87	52.3434
1278.14	58.6871
1278.42	51.3632
1278.69	65.0622
1278.97	74.5757
1279.24	87.2302
1279.52	77.7972
1279.79	101.991
1280.07	117.763
1280.34	142.99
1280.61	187.162
1280.89	232.418
1281.16	337.646
1281.44	433.506
1281.71	586.286
1281.99	794.807
1282.26	1096.9
1282.53	1383.35
1282.81	1740.44
1283.08	2029.63
1283.36	2272.7
1283.63	2390.5
1283.91	2250.9
1284.18	1867.31
1284.45	1442.56
1284.73	991.64
1285	674.674
1285.28	451.288
1285.55	306.756
1285.83	246.626
1286.1	181.369
1286.37	154.06
1286.65	115.109
1286.92	114.035
1287.2	86.6731
1287.47	77.2032
1287.75	75.091
1288.02	75.0801
1288.29	60.3469
1288.57	43.5245
1288.84	49.8591
1289.12	42.5185
1289.39	48.8698
1289.66	40.4881
1289.94	42.6341
1290.21	43.7311
1290.49	38.5038
1290.76	38.5223
1291.03	27.9956
1291.31	32.2221
1291.58	31.1868
1291.86	20.6735
1292.13	31.2217
1292.4	20.7114
1292.68	34.4309
1292.95	29.1795
1293.22	16.5549
1293.5	26.06
1293.77	20.8483
1294.05	17.7496
1294.32	19.9217
1294.59	24.1741
1294.87	10.4883
1295.14	23.1589
1295.42	17.9274
1295.69	21.1572
1295.96	21.2354
1296.24	12.8795
1296.51	15.0556
1296.79	16.1473
1297.06	17.2318
1297.33	11.9623
1297.61	17.256
1297.88	15.1494
1298.15	17.267
1298.43	16.2122
1298.7	13.0817
1298.97	15.2134
1299.25	17.337
1299.52	6.79411
1299.79	5.75255
1300.07	17.3908
1300.34	13.2128
1300.62	6.91564
1300.89	15.3938
1301.16	14.3627
1301.44	4.88628
1301.71	11.2552
1301.98	10.2439
1302.25	8.17521
1302.53	11.3819
1302.8	12.4713
1303.08	9.33214
1303.35	11.47
1303.62	11.4915
1303.9	16.787
1304.17	2.03252
1304.44	9.45814
1304.72	12.6585
1304.99	1.07449
1305.26	2.15366
1305.54	6.39519
1305.81	9.57587
1306.08	4.31416
1306.35	6.43783
1306.63	11.729
1306.9	9.6462
1307.18	3.35298
1307.45	9.72308
1307.72	10.8154
1308	-3.91655
1308.27	2.44667
1308.54	3.54167
1308.81	4.62753
1309.09	3.6134
1309.36	11.0474
1309.63	6.87608
1309.91	3.75937
1310.18	11.1918
1310.45	0.673622
1310.73	10.2037
1311	3.91027
1311.27	2.89651
1311.55	-1.28214
1311.82	0.87072
1312.09	7.24892
1312.37	2.02416
1312.64	2.07491
1312.91	0.00797272
1313.18	5.32405
1313.46	4.29541
1313.73	4.33276
1314	8.58855
1314.28	-1.93219
1314.55	2.3306
1314.82	0.26545
1315.09	1.37003
1315.37	-2.80209
1315.64	1.47251
1315.91	2.58078
1316.18	3.68948
1316.46	2.67233
1316.73	-3.62652
1317	0.637611
1317.28	1.73464
1317.55	1.77811
1317.82	-0.279732
1318.09	-5.51028
1318.37	-1.236
1318.64	5.14975
1318.91	0.970131
1319.18	-0.0414581
1319.46	-2.11145
1319.73	-1.013
1320	4.31131
1320.28	-0.919792
1320.55	1.23966
1320.82	-1.88792
1321.09	4.48503
1321.37	-2.87831
1321.64	2.42633
1321.91	-1.77303
1322.18	2.48175
1322.46	3.56186
1322.73	-5.89445
1323	-5.85661
1323.27	6.83476
1323.55	2.64979
1323.82	-3.61964
1324.09	-2.51386
1324.36	-7.73624
1324.64	6.01792
1324.91	3.9591
1325.18	-0.211861
1325.45	1.95134
1325.73	-0.127274
1326	-4.32606
1326.27	-5.3696
1326.54	3.05109
1326.81	-2.18189
1327.09	-2.13708
1327.36	3.19922
1327.63	3.30065
1327.9	2.32567
1328.18	-0.758011
1328.45	-0.678574
1328.72	-6.92652
1328.99	1.58632
1329.27	-0.465012
1329.54	-7.80678
1329.81	5.96802
1330.08	0.741783
1330.35	-6.59601
1330.63	6.10548
1330.9	1.92526
1331.17	0.906006
1331.44	4.09914
1331.71	-3.25264
1331.99	5.19578
1332.26	6.27522
1332.53	6.30694
1332.8	7.38912
1333.07	4.26003
1333.35	4.2872
1333.62	0.111885
1333.89	6.44935
1334.16	2.27932
1334.43	1.26319
1334.71	0.249161
1334.98	0.286652
1335.25	1.37622
1335.52	4.56535
1335.79	2.50832
1336.07	5.69777
1336.34	5.7411
1336.61	1.59119
1336.88	-1.50789
1337.15	4.83038
1337.43	4.87961
1337.7	2.8335
1337.97	4.97818
1338.24	7.11214
1338.51	-0.181763
1338.78	-0.134941
1339.06	2.00501
1339.33	-2.1339
1339.6	3.15708
1339.87	0.0763092
1340.14	2.23257
1340.42	3.33979
1340.69	-2.88264
1340.96	1.36707
1341.23	5.61311
1341.5	4.62107
1341.77	2.5801
1342.04	-0.510315
1342.32	7.91229
1342.59	9.00148
1342.86	10.0859
1343.13	1.75541
1343.4	5.98864
1343.67	12.3177
1343.95	1.91619
1344.22	1.97539
1344.49	7.26597
1344.76	1.05092
1345.03	1.10456
1345.3	1.15319
1345.58	0.152596
1345.85	11.6863
1346.12	9.63683
1346.39	6.53732
1346.66	1.34062
1346.93	3.46596
1347.2	2.4618
1347.47	8.75814
1347.75	6.71237
1348.02	1.54742
1348.29	-0.484879
1348.56	4.78191
1348.83	-4.54133
1349.1	4.88841
1349.37	10.146
1349.65	9.15084
1349.92	8.15715
1350.19	9.24665
1350.46	6.17192
1350.73	3.0979
1351	7.30522
1351.27	5.26781
1351.54	5.31839
1351.81	11.6017
1352.09	8.53884
1352.36	3.40131
1352.63	5.5526
1352.9	5.63166
1353.17	6.75794
1353.44	3.71118
1353.71	13.2094
1353.98	1.88106
1354.25	15.4187
1354.53	18.4772
1354.8	5.98531
1355.07	10.2135
1355.34	13.4012
1355.61	9.28162
1355.88	7.25437
1356.15	11.4996
1356.42	8.45293
1356.69	11.6172
1356.96	12.7123
1357.24	13.8084
1357.51	8.67227
1357.78	9.76521
1358.05	18.1234
1358.32	19.2114
1358.59	13.0334
1358.86	12.0469
1359.13	21.4328
1359.4	11.108
1359.67	12.1989
1359.94	19.5126
1360.22	21.6289
1360.49	10.2673
1360.76	24.8168
1361.03	14.5055
1361.3	20.7794
1361.57	18.7718
1361.84	20.9055
1362.11	14.7515
1362.38	23.0923
1362.65	21.0769
1362.92	22.1693
1363.19	20.1612
1363.46	29.5513
1363.73	33.7759
1364	26.6039
1364.28	30.8247
1364.55	31.9254
1364.82	30.949
1365.09	32.0404
1365.36	33.1245
1365.63	24.8863
1365.9	34.2464
1366.17	17.733
1366.44	20.8843
1366.71	20.9298
1366.98	23.0392
1367.25	24.1087
1367.52	32.4294
1367.79	39.7202
1368.06	35.666
1368.33	44.0093
1368.6	68.8915
1368.87	86.5404
1369.15	143.477
1369.41	125.984
1369.68	95.0434
1369.95	68.2102
1370.23	43.4514
1370.5	35.2365
1370.77	40.4443
1371.04	36.3643
1371.31	32.2803
1371.58	29.2219
1371.85	31.322
1372.12	35.4793
1372.39	39.6347
1372.66	37.6028
1372.93	29.3948
1373.2	37.6924
1373.47	44.9606
1373.74	39.8605
1374.01	40.9471
1374.28	38.9443
1374.55	49.307
1374.82	43.185
1375.09	42.2134
1375.36	44.327
1375.63	38.2172
1375.9	42.4175
1376.17	48.663
1376.44	55.9479
1376.71	52.8945
1376.98	54.9926
1377.25	57.0789
1377.52	44.7486
1377.79	48.9453
1378.06	54.1874
1378.33	57.3897
1378.6	58.5459
1378.87	65.8946
1379.14	61.8588
1379.41	55.7352
1379.68	66.0951
1379.95	67.1744
1380.22	68.2446
1380.49	62.0753
1380.76	75.4225
1381.03	75.4263
1381.3	88.8109
1381.57	85.8164
1381.84	100.241
1382.11	99.2052
1382.38	111.52
1382.65	102.273
1382.92	131.022
1383.19	143.329
1383.46	143.338
1383.73	182.316
1384	187.466
1384.27	229.531
1384.54	277.794
1384.81	347.614
1385.08	440.052
1385.34	594.127
1385.61	796.613
1385.88	1147.96
1386.15	1789.99
1386.42	2622.05
1386.69	3823.3
1386.96	4914.57
1387.23	5398.36
1387.5	4796.78
1387.77	3485.55
1388.04	2236.12
1388.31	1299.7
1388.58	826.571
1388.85	529.787
1389.12	399.233
1389.39	292.809
1389.66	243.618
1389.93	194.428
1390.2	175.931
1390.46	146.066
1390.73	133.753
1391	121.508
1391.27	103.051
1391.54	99.0028
1391.81	99.0541
1392.08	93.9611
1392.35	89.8898
1392.62	63.2968
1392.89	71.5327
1393.16	68.509
1393.43	71.6304
1393.7	69.6356
1393.97	63.5485
1394.23	53.3698
1394.5	62.6368
1394.77	57.5783
1395.04	57.6384
1395.31	56.6926
1395.58	55.7532
1395.85	55.8313
1396.12	50.7834
1396.39	53.9157
1396.66	59.0883
1396.93	48.9051
1397.2	44.8629
1397.46	42.8616
1397.73	45.9764
1398	32.7344
1398.27	37.9114
1398.54	50.2568
1398.81	45.2187
1399.08	39.1513
1399.35	46.3824
1399.62	40.3242
1399.89	43.4688
1400.16	45.5894
1400.42	34.3936
1400.69	44.7065
1400.96	44.7958
1401.23	43.8475
1401.5	42.883
1401.77	52.1758
1402.04	39.9485
1402.31	42.0935
1402.58	46.3128
1402.84	41.31
1403.11	48.5994
1403.38	52.8018
1403.65	52.8812
1403.92	46.7856
1404.19	47.8535
1404.46	51.9616
1404.73	62.3006
1404.99	53.1192
1405.26	62.4013
1405.53	58.3404
1405.8	64.5344
1406.07	79.955
1406.34	101.523
1406.61	93.3687
1406.87	104.693
1407.14	132.437
1407.41	148.914
1407.68	167.446
1407.95	206.48
1408.22	232.19
1408.49	263.029
1408.76	276.44
1409.02	249.864
1409.29	231.493
1409.56	186.449
1409.83	143.448
1410.1	117.875
1410.37	105.627
1410.63	77.965
1410.9	60.5589
1411.17	53.409
1411.44	49.3454
1411.71	43.2406
1411.98	41.239
1412.25	37.1984
1412.51	37.2713
1412.78	32.2333
1413.05	28.2449
1413.32	23.2692
1413.59	24.4038
1413.86	25.43
1414.12	27.4363
1414.39	25.4627
1414.66	21.4704
1414.93	23.618
1415.2	32.912
1415.47	26.8142
1415.73	22.7672
1416	25.9085
1416.27	18.7866
1416.54	18.8518
1416.81	16.8638
1417.07	18.9838
1417.34	18.0239
1417.61	16.0359
1417.88	20.2117
1418.15	15.1362
1418.42	15.1959
1418.68	18.3394
1418.95	20.4563
1419.22	13.3211
1419.49	17.4912
1419.76	14.4583
1420.02	22.723
1420.29	15.5747
1420.56	16.6466
1420.83	19.7701
1421.1	22.8918
1421.36	19.8555
1421.63	13.748
1421.9	16.8877
1422.17	17.9893
1422.44	17.0425
1422.7	13.0124
1422.97	21.3275
1423.24	19.3886
1423.51	18.4779
1423.77	19.3957
1424.04	17.2531
1424.31	13.2254
1424.58	18.3416
1424.85	15.324
1425.11	20.5226
1425.38	20.6279
1425.65	21.718
1425.92	19.7121
1426.19	18.7655
1426.45	16.764
1426.72	14.7553
1426.99	19.9199
1427.26	7.65379
1427.52	9.74065
1427.79	9.77048
1428.06	12.8769
1428.33	6.77744
1428.59	15.0185
1428.86	10.9776
1429.13	14.1071
1429.4	14.166
1429.67	14.2273
1429.93	9.16893
1430.2	5.13659
1430.47	7.25444
1430.74	8.34465
1431	9.44101
1431.27	12.5974
1431.54	18.8286
1431.81	9.65601
1432.07	10.7349
1432.34	9.75018
1432.61	9.7882
1432.87	10.857
1433.14	4.73772
1433.41	5.7942
1433.68	9.92111
1433.95	4.82787
1434.21	9.98626
1434.48	6.95958
1434.75	12.1595
1435.01	7.10013
1435.28	2.03011
1435.55	5.15536
1435.82	11.353
1436.08	6.27771
1436.35	7.34924
1436.62	9.44472
1436.89	7.44087
1437.15	6.46103
1437.42	9.57901
1437.69	6.5547
1437.95	5.57402
1438.22	7.66901
1438.49	6.69744
1438.76	1.63355
1439.02	3.73619
1439.29	10.9585
1439.56	5.88793
1439.82	6.96989
1440.09	4.98161
1440.36	7.09559
1440.63	7.15094
1440.89	10.2792
1441.16	4.17563
1441.43	4.22663
1441.69	3.24508
1441.96	6.36043
1442.23	12.5545
1442.49	4.41119
1442.76	8.56203
1443.03	9.64626
1443.3	8.6606
1443.56	9.7236
1443.83	3.61095
1444.1	4.67765
1444.36	7.7976
1444.63	8.87302
1444.9	7.91015
1445.16	2.84136
1445.43	3.92962
1445.7	7.04951
1445.97	-2.1427
1446.23	5.07972
1446.5	-0.00741577
1446.77	2.0857
1447.03	6.22946
1447.3	7.29597
1447.57	4.25962
1447.83	-5.95475
1448.1	0.236931
1448.37	6.43234
1448.63	5.46114
1448.9	4.49173
1449.17	8.64184
1449.43	5.60826
1449.7	2.57137
1449.97	6.71065
1450.23	5.72036
1450.5	7.80566
1450.77	3.74429
1451.03	6.85889
1451.3	-0.276421
1451.57	4.88675
1451.83	6.97399
1452.1	8.0365
1452.37	-5.24416
1452.63	5.04174
1452.9	5.08487
1453.17	4.10508
1453.43	-0.970272
1453.7	4.2001
1453.97	3.21758
1454.23	4.28065
1454.5	-1.82877
1454.77	-3.83648
1455.03	-1.74563
1455.3	2.39307
1455.56	1.40631
1455.83	2.47292
1456.1	5.59691
1456.36	3.59261
1456.63	-2.51661
1456.9	3.66935
1457.16	1.65186
1457.43	4.75807
1457.7	-2.37671
1457.96	3.8068
1458.23	-0.252953
1458.49	1.83569
1458.76	-0.172493
1459.03	2.94284
1459.29	-2.13802
1459.56	-4.1466
1459.82	4.08998
1460.09	-3.045
1460.36	1.08893
1460.62	2.14861
1460.89	6.28076
1461.16	0.168026
1461.42	-0.823822
1461.69	0.232464
1461.95	6.40691
1462.22	-2.77708
1462.49	6.46434
1462.75	2.3983
1463.02	2.42564
1463.28	2.452
1463.55	1.45518
1463.82	-1.58487
1464.08	0.495174
1464.35	-4.56758
1464.61	-0.419884
1464.88	2.70292
1465.15	0.713539
1465.41	2.76153
1465.68	2.71188
1465.94	-3.41421
1466.21	0.699425
1466.48	-1.2927
1466.74	-8.40629
1467.01	-3.28542
1467.27	-2.23558
1467.54	3.92497
1467.8	-2.16422
1468.07	-4.17244
1468.34	-5.1596
1468.6	-3.08568
1468.87	4.08802
1469.13	1.05958
1469.4	-2.99029
1469.67	1.11775
1469.93	-1.91572
1470.2	0.146801
1470.46	6.28697
1470.73	1.21854
1470.99	1.24662
1471.26	0.257687
1471.53	-0.733955
1471.79	-1.72773
1472.06	1.35441
1472.32	0.36557
1472.59	-0.621811
1472.85	-1.60881
1473.12	-1.57779
1473.39	-0.530674
1473.65	-3.55887
1473.92	0.538425
1474.18	0.564896
1474.45	-1.44193
1474.71	0.624725
1474.98	-2.39318
1475.24	-1.34142
1475.51	2.76154
1475.78	-2.29791
1476.04	-1.25307
1476.31	-2.24554
1476.57	-0.18399
1476.84	-2.19207
1477.1	0.883457
1477.37	0.906464
1477.63	2.96687
1477.9	0.961254
1478.16	3.02383
1478.43	-2.03591
1478.69	-0.997673
1478.96	-1.99085
1479.22	-1.96759
1479.49	0.0869713
1479.76	4.17189
1480.02	-4.95123
1480.29	-1.88373
1480.55	-1.86968
1480.82	-3.88273
1481.08	3.24107
1481.35	-1.80799
1481.61	3.28551
1481.88	-0.74049
1482.14	-1.72064
1482.41	-4.73017
1482.67	0.380795
1482.94	1.43028
1483.2	3.48808
1483.47	1.49015
1483.73	1.5202
1484	1.54734
1484.26	-3.50463
1484.53	-6.53863
1484.79	-0.445011
1485.06	-0.463017
1485.32	-0.492855
1485.59	2.54795
1485.85	3.55049
1486.12	-0.370533
1486.38	-3.37307
1486.65	-3.33268
1486.91	1.7157
1487.18	-1.27625
1487.44	-2.25806
1487.71	3.83409
1487.97	-3.24155
1488.24	1.84175
1488.5	2.87214
1488.77	-5.21174
1489.03	-4.18384
1489.3	-3.15441
1489.56	1.92482
1489.83	-2.10157
1490.09	2.97821
1490.36	-1.04472
1490.62	-0.00975037
1490.89	5.06649
1491.15	1.03556
1491.42	-0.971519
1491.68	1.07013
1491.95	-1.94146
1492.21	1.11459
1492.48	3.16163
1492.74	2.1721
1493	-4.88426
1493.27	0.191868
1493.53	3.24719
1493.8	1.24481
1494.06	2.27638
1494.33	-1.74418
1494.59	-0.708534
1494.86	-0.683113
1495.12	2.3699
1495.39	1.37389
1495.65	1.38307
1495.92	-2.65131
1496.18	1.39846
1496.45	1.41198
1496.71	0.417667
1496.97	-1.58525
1497.24	0.448879
1497.5	-0.539932
1497.77	0.489697
1498.03	-2.51973
1498.3	2.54569
1498.56	-2.47958
1498.82	-4.47693
1499.09	-0.418503
1499.35	-0.396729
1499.62	1.64458
1499.88	-1.36038
1500.15	-1.3373
1500.41	-0.306702
1500.68	-0.287552
1500.94	0.739975
1501.2	-0.25172
1501.47	0.772476
1501.73	-1.23499
1502	-2.22771
1502.26	4.85387
1502.52	-1.18393
1502.79	5.8939
1503.05	-0.150257
1503.32	3.89447
1503.58	-1.1349
1503.85	5.93412
1504.11	2.92706
1504.37	0.932323
1504.64	1.96045
1504.9	1.97834
1505.17	5.01923
1505.43	-2.02615
1505.7	1.00981
1505.96	4.03892
1506.22	3.03276
1506.49	5.06172
1506.75	-2.98214
1507.02	-0.948753
1507.28	0.0811615
1507.54	0.0993538
1507.81	1.12537
1508.07	2.14912
1508.34	2.16241
1508.6	1.16872
1508.86	-3.85237
1509.13	6.24118
1509.39	-0.795792
1509.66	-1.78823
1509.92	1.25018
1510.18	1.27021
1510.45	1.28836
1510.71	2.30344
1510.98	6.34021
1511.24	-1.7131
1511.5	-0.701855
1511.77	-0.702789
1512.03	-2.7207
1512.29	2.30195
1512.56	1.29073
1512.82	-3.73501
1513.08	1.29148
1513.35	0.292263
1513.61	4.31435
1513.88	2.31712
1514.14	1.337
1514.4	-0.641994
1514.67	2.38924
1514.93	0.389278
1515.2	4.41057
1515.46	1.40038
1515.72	-0.604053
1515.99	2.40755
1516.25	4.41428
1516.51	1.40945
1516.78	-1.58993
1517.04	-1.58011
1517.3	3.44345
1517.57	0.447186
1517.83	2.46575
1518.09	4.48681
1518.36	-0.507145
1518.62	0.510212
1518.88	0.525402
1519.15	2.54613
1519.41	3.56505
1519.67	0.570709
1519.94	3.59452
1520.2	0.59544
1520.47	-0.399693
1520.73	-0.390823
1520.99	-1.38026
1521.26	-1.36502
1521.52	-2.35366
1521.78	-2.34109
1522.05	1.68206
1522.31	-3.32705
1522.57	2.69896
1522.84	-3.31356
1523.1	1.70819
1523.36	-1.2963
1523.62	0.707798
