#Acq. time (s)=	30
#Accumulations=	2
#Range (cm-¹)=	1200...2365
#Windows=	3
#Auto scanning=	Off
#Autofocus=	Off
#Macrospot=	Off
#AutoExposure=	Off
#Spike filter=	Multiple accum.
#Delay time (s)=	2
#Binning=	1
#Readout mode=	Signal
#DeNoise=	Off
#ICS correction=	On
#Dark correction=	Off
#Inst. Process=	Off
#Detector Gain=	Best Dynamic
#Detector ADC=	50 kHz HS
#Detector temperature (°C)=	-60.09
#Instrument=	LabRAM HR Evol
#Detector=	SIN-EM FIVIS
#Objective=	x100_VIS_LWD
#Grating=	1800 (450-850nm)
#ND Filter=	100%
#Laser=	532nm_Edge
#Hole=	100.021
#Temperature=	0
#Range=	Visible
#StageXY=	75x50mm Scan+
#StageZ=	Z motor
#X (µm)=	0
#Y (µm)=	0
#Z (µm)=	-43.7
#Full time(mm:ss)=	3:22
#Project=	21_11_26
#Sample=	BU19(2)w
#Site=	
#Title=	BU19(2)w-A-FF2-FI03-V_1800 (450-850nm)_532nm_Edge_100%_x100_VIS_LWD_H100um_30sX2
#Remark=	
#Date=	26.11.2021 15:16
#Acquired=	26.11.2021 15:16:39
#Base:Fit=	16.12.2021 16:00:56
#Base:Fit=	16.12.2021 16:11:20
#Base:Sub=	16.12.2021 16:11:22
1202.72	25.7712
1203	8.17072
1203.28	-2.30167
1203.56	-15.2335
1203.84	16.985
1204.11	0.868469
1204.39	-0.15683
1204.67	17.2364
1204.95	5.62717
1205.23	12.1855
1205.5	-13.5598
1205.78	6.88708
1206.06	4.75119
1206.34	4.75693
1206.61	6.9101
1206.89	2.62646
1207.17	-3.79718
1207.45	3.73389
1207.73	-9.04321
1208	-2.54065
1208.28	10.4059
1208.56	-4.49344
1208.84	-4.43948
1209.11	-11.8656
1209.39	-0.0362854
1209.67	8.62366
1209.95	6.61682
1210.23	-10.3751
1210.5	2.52789
1210.78	2.53018
1211.06	-7.07501
1211.34	6.83743
1211.61	1.51114
1211.89	-4.85452
1212.17	-5.91803
1212.45	-4.84457
1212.72	-10.1317
1213	-12.2268
1213.28	4.84729
1213.56	3.84103
1213.83	4.98749
1214.11	1.8457
1214.39	6.241
1214.67	17.0191
1214.94	1.1716
1215.22	14.0613
1215.5	-4.99985
1215.78	-14.4833
1216.05	16.4735
1216.33	-21.8143
1216.61	-0.536102
1216.89	14.3193
1217.16	-3.77859
1217.44	-15.46
1217.72	10.0519
1218	-9.05737
1218.27	10.0831
1218.55	-7.93646
1218.83	23.9357
1219.1	1.70871
1219.38	-16.2554
1219.66	-0.273285
1219.94	15.6941
1220.21	2.99976
1220.49	-3.28201
1220.77	-14.8565
1221.04	-2.05609
1221.32	9.66608
1221.6	3.33286
1221.88	-1.93921
1222.15	-10.4249
1222.43	3.30994
1222.71	0.0675964
1222.98	6.33881
1223.26	11.5533
1223.54	-5.43643
1223.81	-6.54581
1224.09	-5.5213
1224.37	8.17511
1224.65	6.05911
1224.92	-1.31857
1225.2	-4.45401
1225.48	11.444
1225.76	-6.38913
1226.03	14.8322
1226.31	7.55518
1226.59	-0.84082
1226.86	3.42807
1227.14	12.935
1227.42	8.72287
1227.69	5.45374
1227.97	10.4739
1228.25	-8.62088
1228.52	9.15826
1228.8	-6.86792
1229.08	0.309509
1229.35	-13.3152
1229.63	7.521
1229.91	-7.55383
1230.18	2.75476
1230.46	0.398834
1230.74	1.39465
1231.01	13.0727
1231.29	-1.80679
1231.57	3.92438
1231.84	15.5967
1232.12	9.33829
1232.4	-9.53506
1232.67	0.985779
1232.95	-2.12314
1233.23	14.7179
1233.5	3.17938
1233.78	5.32053
1234.06	-8.27039
1234.33	-2.94196
1234.61	-7.06647
1234.89	-8.0256
1235.16	-8.97983
1235.44	-1.5531
1235.71	-8.83823
1235.99	-6.65417
1236.27	-4.483
1236.54	17.6331
1236.82	11.3246
1237.1	-1.30035
1237.37	-2.38092
1237.65	1.75342
1237.93	-1.4736
1238.2	-5.74811
1238.48	9.91693
1238.76	-2.7529
1239.03	-13.2921
1239.31	3.46735
1239.58	6.60364
1239.86	10.7976
1240.14	5.56894
1240.41	-9.08282
1240.69	-0.665558
1240.97	8.80988
1241.24	-13.1545
1241.52	5.75751
1241.79	8.90393
1242.07	18.3071
1242.35	7.81958
1242.62	2.61551
1242.9	-16.1994
1243.18	-1.45395
1243.45	-8.72131
1243.73	5.97778
1244	-0.282135
1244.28	-10.7177
1244.56	1.88489
1244.83	-1.25485
1245.11	0.835602
1245.39	3.93521
1245.66	-6.59811
1245.94	5.88504
1246.21	1.61288
1246.49	-1.54953
1246.76	16.2425
1247.04	-15.135
1247.32	6.86203
1247.59	-8.84302
1247.87	0.591217
1248.14	0.577728
1248.42	20.3557
1248.7	-2.69952
1248.97	5.67181
1249.25	5.71127
1249.52	-16.2114
1249.8	16.2107
1250.08	5.75937
1250.35	21.4698
1250.63	6.77698
1250.9	-6.88031
1251.18	7.69983
1251.45	14.9673
1251.73	19.1046
1252.01	-10.1862
1252.28	7.52853
1252.56	-4.00244
1252.83	-12.3978
1253.11	21.998
1253.39	-9.36014
1253.66	18.7988
1253.94	6.29214
1254.21	14.7076
1254.49	7.47751
1254.76	9.64993
1255.04	5.51425
1255.31	-8.04694
1255.59	-10.0982
1255.87	10.7995
1256.14	3.48648
1256.42	8.73428
1256.69	3.55048
1256.97	18.2322
1257.24	-4.71997
1257.52	22.4315
1257.79	16.1279
1258.07	19.2417
1258.35	-3.74512
1258.62	24.4294
1258.9	-3.7865
1259.17	2.4118
1259.45	19.113
1259.72	14.9867
1260	-4.79056
1260.27	4.74774
1260.55	8.85034
1260.82	11.9119
1261.1	5.54059
1261.37	19.0326
1261.65	20.0297
1261.92	29.4742
1262.2	29.7917
1262.48	60.5754
1262.75	50.3599
1263.02	43.4978
1263.3	59.762
1263.58	61.682
1263.85	53.7112
1264.13	51.9137
1264.4	26.1306
1264.68	30.4946
1264.95	28.1918
1265.23	21.8426
1265.5	13.4875
1265.78	20.7806
1266.05	18.636
1266.33	14.4611
1266.6	-4.31747
1266.88	11.4068
1267.15	4.15771
1267.43	10.5117
1267.7	14.7885
1267.98	12.7993
1268.25	7.68164
1268.53	22.4886
1268.8	2.71957
1269.08	36.3081
1269.35	12.2746
1269.63	9.17831
1269.9	7.06863
1270.18	15.3822
1270.45	9.00269
1270.73	21.5019
1271	14.0981
1271.28	19.2787
1271.55	3.56418
1271.83	6.66516
1272.1	7.74118
1272.38	15.1482
1272.65	3.73068
1272.93	19.5691
1273.2	11.2809
1273.47	15.5636
1273.75	10.4171
1274.03	5.26608
1274.3	26.3307
1274.57	11.7079
1274.85	27.4625
1275.12	-0.867584
1275.4	12.7743
1275.67	34.845
1275.95	17.0712
1276.22	-0.704742
1276.5	16.1703
1276.77	12.0367
1277.05	13.1553
1277.32	14.2565
1277.6	8.04044
1277.87	10.2257
1278.14	23.9713
1278.42	30.3514
1278.69	23.0616
1278.97	32.6288
1279.24	33.7422
1279.52	32.7528
1279.79	24.3227
1280.07	42.1815
1280.34	42.1436
1280.61	58.9618
1280.89	50.5821
1281.16	84.2827
1281.44	111.744
1281.71	146.615
1281.99	208.789
1282.26	258.255
1282.53	380.428
1282.81	478.426
1283.08	619.353
1283.36	726.216
1283.63	749.488
1283.91	709.171
1284.18	524.211
1284.45	419.527
1284.73	279.883
1285	194.645
1285.28	108.236
1285.55	86.9715
1285.83	62.6227
1286.1	53.1604
1286.37	26.9195
1286.65	32.1878
1286.92	20.5467
1287.2	15.2839
1287.47	27.9031
1287.75	22.5956
1288.02	30.9618
1288.29	38.2972
1288.57	27.7764
1288.84	16.216
1289.12	10.9843
1289.39	27.8819
1289.66	11.1055
1289.94	11.1728
1290.21	12.3015
1290.49	28.1665
1290.76	15.5313
1291.03	9.18219
1291.31	15.4907
1291.58	10.2266
1291.86	13.3901
1292.13	19.7041
1292.4	-8.7215
1292.68	-3.42776
1292.95	9.20026
1293.22	-7.66757
1293.5	10.2602
1293.77	17.7493
1294.05	6.30212
1294.32	28.5902
1294.59	1.22116
1294.87	0.175751
1295.14	15.979
1295.42	9.71948
1295.69	6.70087
1295.96	11.109
1296.24	-1.32471
1296.51	4.09949
1296.79	9.42731
1297.06	0.988861
1297.33	-0.0932617
1297.61	-0.138794
1297.88	8.25818
1298.15	7.13757
1298.43	-5.61032
1298.7	-2.39554
1298.97	1.81339
1299.25	2.82642
1299.52	-7.76453
1299.79	-9.91531
1300.07	8.03598
1300.34	13.382
1300.62	11.3148
1300.89	-0.280334
1301.16	7.10654
1301.44	2.88184
1301.71	6.07623
1301.98	-1.2507
1302.25	-7.52762
1302.53	5.18573
1302.8	16.8259
1303.08	-0.0681152
1303.35	4.14774
1303.62	-1.15668
1303.9	-15.985
1304.17	-7.53674
1304.44	-0.12616
1304.72	-0.113495
1304.99	15.7335
1305.26	-1.18781
1305.54	-5.45358
1305.81	2.93152
1306.08	7.09317
1306.35	-20.4008
1306.63	1.70227
1306.9	-6.75
1307.18	11.1904
1307.45	-0.369354
1307.72	18.6384
1308	8.09985
1308.27	4.94662
1308.54	-6.62494
1308.81	6.02667
1309.09	15.5509
1309.36	-1.26196
1309.63	8.29236
1309.91	-1.14383
1310.18	3.12155
1310.45	7.34866
1310.73	11.5634
1311	2.08093
1311.27	-7.38864
1311.55	-3.13568
1311.82	3.22598
1312.09	10.6556
1312.37	14.95
1312.64	11.8461
1312.91	8.71625
1313.18	0.270599
1313.46	-8.20972
1313.73	9.74179
1314	10.7839
1314.28	1.27612
1314.55	-2.93063
1314.82	5.54889
1315.09	1.37421
1315.37	16.2117
1315.64	15.2121
1315.91	-17.4669
1316.18	8.99463
1316.46	23.7843
1316.73	6.88174
1317	12.1654
1317.28	0.556671
1317.55	10.0782
1317.82	-3.58871
1318.09	0.684448
1318.37	4.94794
1318.64	-4.52945
1318.91	-11.8998
1319.18	-6.59848
1319.46	-16.0973
1319.73	-1.3017
1320	2.93045
1320.28	-11.8197
1320.55	2.99277
1320.82	-0.175537
1321.09	-10.765
1321.37	-6.59018
1321.64	2.84268
1321.91	15.4258
1322.18	-16.2708
1322.46	0.542297
1322.73	18.4497
1323	5.76712
1323.27	-1.64215
1323.55	-8.00888
1323.82	-15.3346
1324.09	12.1138
1324.36	1.59482
1324.64	-3.66711
1324.91	-6.80554
1325.18	12.1853
1325.45	-6.75418
1325.73	-3.6503
1326	5.71384
1326.27	-7.08774
1326.54	7.44809
1326.81	-5.25079
1327.09	-1.04547
1327.36	2.23721
1327.63	7.73257
1327.9	-3.71976
1328.18	10.1105
1328.45	16.583
1328.72	11.4606
1328.99	-12.6783
1329.27	-2.07748
1329.54	19.0044
1329.81	0.0705872
1330.08	23.2893
1330.35	4.29532
1330.63	2.1665
1330.9	-8.41544
1331.17	-11.629
1331.44	-9.58893
1331.71	-1.25528
1331.99	-1.36957
1332.26	6.96765
1332.53	1.63818
1332.8	23.6619
1333.07	-7.98727
1333.35	-1.76416
1333.62	-4.99661
1333.89	8.59351
1334.16	-3.03143
1334.43	13.7096
1334.71	-2.10275
1334.98	-8.45355
1335.25	2.00098
1335.52	-4.33231
1335.79	18.7135
1336.07	13.4344
1336.34	-4.4248
1336.61	0.796082
1336.88	4.97162
1337.15	-5.52444
1337.43	0.760071
1337.7	2.85416
1337.97	14.3723
1338.24	3.83823
1338.51	-1.44815
1338.78	-7.75339
1339.06	0.598358
1339.33	0.589233
1339.6	-1.48932
1339.87	-5.64096
1340.14	1.7316
1340.42	-11.8498
1340.69	-5.52948
1340.96	-0.257477
1341.23	6.04529
1341.5	-16.9822
1341.77	-0.223389
1342.04	1.86154
1342.32	6.02429
1342.59	-3.43814
1342.86	5.92288
1343.13	10.0498
1343.4	2.70935
1343.67	2.71155
1343.95	-10.8688
1344.22	-6.66177
1344.49	-0.354553
1344.76	3.85547
1345.03	-3.46735
1345.3	1.73648
1345.58	-4.57953
1345.85	-7.78534
1346.12	3.65698
1346.39	-1.64566
1346.66	21.1923
1346.93	20.0688
1347.2	-3.99905
1347.47	2.18945
1347.75	-4.12674
1348.02	-5.19861
1348.29	-6.25302
1348.56	2.08551
1348.83	-10.416
1349.1	4.15228
1349.37	21.8321
1349.65	-7.37097
1349.92	13.4292
1350.19	-1.17926
1350.46	23.7789
1350.73	20.6225
1351	1.83786
1351.27	-4.45587
1351.54	17.3658
1351.81	-4.52914
1352.09	4.83411
1352.36	14.2154
1352.63	-7.55728
1352.9	-6.42303
1353.17	-1.09875
1353.44	3.14185
1353.71	-0.728424
1353.98	-5.62244
1354.25	-7.96506
1354.53	5.12772
1354.8	4.83139
1355.07	12.1687
1355.34	-1.28412
1355.61	12.1398
1355.88	12.1096
1356.15	-4.37442
1356.42	-4.32104
1356.69	0.835907
1356.96	-0.20462
1357.24	2.91342
1357.51	14.335
1357.78	6.0148
1358.05	5.99457
1358.32	8.04514
1358.59	1.78952
1358.86	2.80356
1359.13	-0.343445
1359.4	15.1848
1359.67	19.316
1359.94	-2.47351
1360.22	13.027
1360.49	10.8878
1360.76	8.7551
1361.03	1.47311
1361.3	7.6929
1361.57	19.1119
1361.84	3.59201
1362.11	-2.61069
1362.38	18.0948
1362.65	3.59207
1362.92	-3.65674
1363.19	25.3532
1363.46	22.2979
1363.73	2.70847
1364	11.0639
1364.28	17.3495
1364.55	-2.30579
1364.82	20.4915
1365.09	8.05804
1365.36	-1.28845
1365.63	23.5198
1365.9	18.2954
1366.17	12.0422
1366.44	12
1366.71	0.576416
1366.98	9.82303
1367.25	5.60782
1367.52	5.5889
1367.79	16.9561
1368.06	25.298
1368.33	16.0516
1368.6	33.6751
1368.87	27.5241
1369.15	58.59
1369.41	39.0062
1369.68	7.00681
1369.95	19.4057
1370.23	-2.31024
1370.5	11.1224
1370.77	6.93594
1371.04	15.1913
1371.31	18.2612
1371.58	3.74149
1371.85	32.5755
1372.12	12.8621
1372.39	14.8326
1372.66	19.9063
1372.93	33.253
1373.2	10.5468
1373.47	21.8725
1373.74	-4.93353
1374.01	12.5835
1374.28	24.9515
1374.55	2.2916
1374.82	21.8765
1375.09	17.7606
1375.36	20.8401
1375.63	18.8236
1375.9	25.0768
1376.17	18.9183
1376.44	22.0585
1376.71	24.0644
1376.98	20.9243
1377.25	21.8744
1377.52	21.7678
1377.79	23.8984
1378.06	33.2787
1378.33	30.356
1378.6	22.3125
1378.87	16.3406
1379.14	31.8914
1379.41	23.6616
1379.68	12.3091
1379.95	27.7545
1380.22	23.593
1380.49	37.9016
1380.76	27.3602
1381.03	49.8685
1381.3	50.7934
1381.57	27.2267
1381.84	28.1985
1382.11	35.267
1382.38	40.2629
1382.65	52.4698
1382.92	52.3688
1383.19	33.7908
1383.46	46.0351
1383.73	50.064
1384	76.69
1384.27	80.7666
1384.54	82.8608
1384.81	87.0268
1385.08	126.099
1385.34	180.617
1385.61	231.123
1385.88	342.157
1386.15	486.07
1386.42	826.093
1386.69	1166.31
1386.96	1520.85
1387.23	1632.82
1387.5	1322.38
1387.77	861.387
1388.04	512.769
1388.31	318.137
1388.58	201.229
1388.85	146.709
1389.12	109.329
1389.39	79.8466
1389.66	57.3182
1389.93	60.4723
1390.2	64.4846
1390.46	37.5541
1390.73	31.3056
1391	34.3997
1391.27	20.9659
1391.54	36.3401
1391.81	29.1652
1392.08	21.9464
1392.35	28.0363
1392.62	26.9672
1392.89	42.2986
1393.16	20.7816
1393.43	24.868
1393.7	9.5112
1393.97	16.6758
1394.23	14.632
1394.5	18.7322
1394.77	15.6718
1395.04	2.38684
1395.31	17.7991
1395.58	35.2821
1395.85	17.9511
1396.12	3.6651
1396.39	13.9209
1396.66	4.71121
1396.93	4.70355
1397.2	38.4614
1397.46	18.9865
1397.73	3.61169
1398	15.8851
1398.27	1.59122
1398.54	24.1446
1398.81	28.3049
1399.08	-3.35822
1399.35	1.8024
1399.62	9.04703
1399.89	-7.26462
1400.16	15.3105
1400.42	24.548
1400.69	5.1734
1400.96	5.28085
1401.23	15.587
1401.5	26.8676
1401.77	0.308807
1402.04	38.2276
1402.31	8.66315
1402.58	21.1709
1402.84	10.1172
1403.11	20.5472
1403.38	32.9977
1403.65	6.38556
1403.92	3.33704
1404.19	19.7245
1404.46	12.3882
1404.73	24.7757
1404.99	25.8003
1405.26	24.7632
1405.53	25.7585
1405.8	17.521
1406.07	22.6183
1406.34	42.0704
1406.61	13.3613
1406.87	63.5851
1407.14	50.3054
1407.41	56.5093
1407.68	55.5426
1407.95	80.1974
1408.22	86.3994
1408.49	84.399
1408.76	94.7036
1409.02	68.0981
1409.29	89.697
1409.56	58.9868
1409.83	28.2704
1410.1	47.8064
1410.37	20.1375
1410.63	8.81833
1410.9	23.1136
1411.17	23.0387
1411.44	25.0388
1411.71	19.8856
1411.98	14.7469
1412.25	10.6645
1412.51	5.6124
1412.78	12.9029
1413.05	16.2052
1413.32	14.5628
1413.59	13.7573
1413.86	7.37891
1414.12	23.3979
1414.39	1.96115
1414.66	8.35031
1414.93	7.49576
1415.2	14.6878
1415.47	-10.9415
1415.73	21.9395
1416	13.7614
1416.27	6.62625
1416.54	17.9762
1416.81	12.8989
1417.07	0.632355
1417.34	24.3211
1417.61	6.92053
1417.88	5.95215
1418.15	15.2431
1418.42	4.99927
1418.68	15.3136
1418.95	-17.5312
1419.22	7.16208
1419.49	15.4153
1419.76	28.765
1420.02	22.5634
1420.29	21.4956
1420.56	7.08133
1420.83	4.98865
1421.1	-1.21332
1421.36	19.284
1421.63	11.0689
1421.9	11.1115
1422.17	14.3
1422.44	13.4047
1422.7	12.5085
1422.97	18.8713
1423.24	10.9416
1423.51	15.3633
1423.77	4.35889
1424.04	-4.46417
1424.31	18.2011
1424.58	5.6203
1424.85	-2.55002
1425.11	-2.43994
1425.38	0.869507
1425.65	9.13742
1425.92	0.912506
1426.19	3.09274
1426.45	13.3519
1426.72	-7.19443
1426.99	5.05652
1427.26	11.1452
1427.52	1.85263
1427.79	22.239
1428.06	8.84152
1428.33	4.71808
1428.59	-7.56583
1428.86	-6.51547
1429.13	-11.5952
1429.4	-3.35626
1429.67	2.84579
1429.93	11.1101
1430.2	-1.09518
1430.47	5.15683
1430.74	-9.10654
1431	-0.79184
1431.27	2.44046
1431.54	13.8552
1431.81	-0.437408
1432.07	2.66418
1432.34	10.8391
1432.61	12.838
1432.87	6.65649
1433.14	10.6856
1433.41	1.36279
1433.68	-0.794983
1433.95	-28.55
1434.21	4.1734
1434.48	-13.2446
1434.75	11.4978
1435.01	-16.0817
1435.28	3.42044
1435.55	-3.73053
1435.82	4.48041
1436.08	20.8812
1436.35	10.6349
1436.62	-10.8824
1436.89	3.45294
1437.15	-4.75214
1437.42	10.6061
1437.69	2.42303
1437.95	15.7226
1438.22	-8.85287
1438.49	-4.72186
1438.76	4.56207
1439.02	-0.512543
1439.29	9.76099
1439.56	-2.4978
1439.82	11.9137
1440.09	-8.49435
1440.36	-6.34259
1440.63	10.1189
1440.89	8.10599
1441.16	7.10391
1441.43	12.2674
1441.69	17.3889
1441.96	13.253
1442.23	-1.10919
1442.49	-5.13101
1442.76	9.25101
1443.03	-2.97662
1443.3	14.437
1443.56	19.5273
1443.83	9.24667
1444.1	-6.1441
1444.36	6.16324
1444.63	-3.02661
1444.9	5.28027
1445.16	12.5525
1445.43	-0.668365
1445.7	6.50525
1445.97	9.57047
1446.23	13.6638
1446.5	-1.73184
1446.77	5.44138
1447.03	9.5361
1447.3	7.47687
1447.57	-4.84286
1447.83	12.5652
1448.1	7.42358
1448.37	6.41214
1448.63	-6.84769
1448.9	1.43924
1449.17	12.7558
1449.43	11.7414
1449.7	1.47443
1449.97	-1.62601
1450.23	-3.71072
1450.5	3.4313
1450.77	-0.680084
1451.03	-2.73868
1451.3	-12.9968
1451.57	-11.9821
1451.83	1.32452
1452.1	11.5558
1452.37	-10.9941
1452.63	-7.9187
1452.9	17.7129
1453.17	-2.74927
1453.43	-1.67606
1453.7	-1.63358
1453.97	2.48196
1454.23	-1.62463
1454.5	3.49597
1454.77	-7.76239
1455.03	12.746
1455.3	8.65146
1455.56	6.59476
1455.83	-15.9282
1456.1	7.70596
1456.36	-13.7755
1456.63	-13.7633
1456.9	4.67273
1457.16	-7.66315
1457.43	1.52313
1457.7	0.488342
1457.96	-12.8363
1458.23	4.5784
1458.49	5.61673
1458.76	26.1245
1459.03	-8.67703
1459.29	-6.60199
1459.56	22.1078
1459.82	12.9052
1460.09	3.68372
1460.36	-10.6675
1460.62	-15.7992
1460.89	10.8214
1461.16	18.9928
1461.42	-3.56833
1461.69	-1.54791
1461.95	-4.65201
1462.22	-1.62
1462.49	2.42975
1462.75	13.6353
1463.02	8.46213
1463.28	7.37833
1463.55	1.17892
1463.82	3.16989
1464.08	-0.920288
1464.35	11.4558
1464.61	3.42484
1464.88	-2.59775
1465.15	-1.42371
1465.41	0.402374
1465.68	-4.22186
1465.94	1.66809
1466.21	2.66797
1466.48	9.91644
1466.74	1.73041
1467.01	-0.434387
1467.27	-12.7076
1467.54	-8.58997
1467.8	-5.53949
1468.07	-1.47171
1468.34	13.8246
1468.6	-17.7944
1468.87	20.9687
1469.13	-4.54129
1469.4	9.71558
1469.67	0.50769
1469.93	8.61432
1470.2	-18.9731
1470.46	12.5746
1470.73	-5.80313
1470.99	-4.81137
1471.26	-6.86356
1471.53	1.25278
1471.79	0.182251
1472.06	-1.88882
1472.32	0.13324
1472.59	7.25638
1472.85	-18.2011
1473.12	16.416
1473.39	-12.1091
1473.65	-4.00089
1473.92	2.06818
1474.18	-4.06839
1474.45	-2.04822
1474.71	3.0452
1474.98	-8.11661
1475.24	8.19385
1475.51	9.22156
1475.78	-7.0672
1476.04	-4.0351
1476.31	2.03607
1476.57	4.04691
1476.84	-8.18311
1477.1	3.98239
1477.37	8.00586
1477.63	-4.21875
1477.9	8.99619
1478.16	8.99326
1478.43	4.89508
1478.69	26.1895
1478.96	10.8991
1479.22	3.74326
1479.49	9.79294
1479.76	4.65894
1480.02	4.59729
1480.29	11.6461
1480.55	-1.6593
1480.82	-7.83099
1481.08	-0.781799
1481.35	-5.87857
1481.61	10.3062
1481.88	22.5132
1482.14	3.28897
1482.41	-1.72659
1482.67	9.50482
1482.94	6.51105
1483.2	-6.68518
1483.47	-0.553558
1483.73	-0.530487
1484	11.6591
1484.26	4.54318
1484.53	3.40793
1484.79	-1.83102
1485.06	-5.18762
1485.32	11.6209
1485.59	-1.67834
1485.85	-0.895844
1486.12	-9.31735
1486.38	15.0891
1486.65	11.1558
1486.91	-12.4645
1487.18	17.0687
1487.44	14.0789
1487.71	-0.195618
1487.97	-0.263153
1488.24	-19.5453
1488.5	-2.37558
1488.77	6.6716
1489.03	4.57452
1489.3	13.6263
1489.56	5.49832
1489.83	-6.66751
1490.09	3.43011
1490.36	15.569
1490.62	14.5537
1490.89	13.5048
1491.15	-13.8629
1491.42	1.24844
1491.68	-8.89008
1491.95	7.27347
1492.21	-5.86996
1492.48	1.22073
1492.74	4.24417
1493	3.21735
1493.27	14.3276
1493.53	-0.836792
1493.8	-4.90125
1494.06	7.21741
1494.33	-1.87622
1494.59	8.25259
1494.86	9.2894
1495.12	-5.88748
1495.39	2.15121
1495.65	-4.00101
1495.92	-2.0881
1496.18	-5.20425
1496.45	-13.3365
1496.71	9.84293
1496.97	-6.34702
1497.24	11.779
1497.5	17.831
1497.77	6.72522
1498.03	19.8263
1498.3	10.7349
1498.56	-14.4937
1498.82	0.649689
1499.09	8.73267
1499.35	0.670258
1499.62	1.69778
1499.88	-0.29599
1500.15	15.881
1500.41	9.83331
1500.68	14.8771
1500.94	4.76913
1501.2	21.9195
1501.47	-0.324097
1501.73	-2.40271
1502	16.7507
1502.26	-0.416077
1502.52	10.6699
1502.79	0.547974
1503.05	13.5959
1503.32	8.48843
1503.58	4.41586
1503.85	-7.7413
1504.11	1.32962
1504.37	7.40622
1504.64	19.5189
1504.9	13.4678
1505.17	3.36661
1505.43	2.32388
1505.7	16.3889
1505.96	13.273
1506.22	6.10568
1506.49	10.1113
1506.75	20.1728
1507.02	2.04907
1507.28	1.08182
1507.54	10.1592
1507.81	7.14664
1508.07	-9.9903
1508.34	-4.97562
1508.6	11.1259
1508.86	7.0979
1509.13	20.2047
1509.39	15.1676
1509.66	3.06763
1509.92	25.2305
1510.18	14.1772
1510.45	19.2328
1510.71	26.2211
1510.98	-8.09894
1511.24	11.9731
1511.5	14.9024
1511.77	10.7449
1512.03	2.52917
1512.29	27.5035
1512.56	-8.84256
1512.82	3.08499
1513.08	9.02728
1513.35	-0.085144
1513.61	5.87564
1513.88	2.83432
1514.14	21.9778
1514.4	15.0668
1514.67	9.06564
1514.93	9.02539
1515.2	-7.11737
1515.46	9.86603
1515.72	7.77463
1515.99	1.65567
1516.25	17.6096
1516.51	10.5171
1516.78	5.46725
1517.04	7.44287
1517.3	-3.61197
1517.57	4.39563
1517.83	-1.62039
1518.09	-7.62039
1518.36	12.4855
1518.62	-8.56525
1518.88	30.5682
1519.15	0.489624
1519.41	4.52316
1519.67	1.53186
1519.94	4.55099
1520.2	-9.50778
1520.47	21.5589
1520.73	-6.55713
1520.99	13.5177
1521.26	15.5495
1521.52	12.5619
1521.78	7.54996
1522.05	-1.49896
1522.31	9.50415
