#Acq. time (s)=	30
#Accumulations=	2
#Range (cm-¹)=	1200...2365
#Windows=	3
#Auto scanning=	Off
#Autofocus=	Off
#Macrospot=	Off
#AutoExposure=	Off
#Spike filter=	Multiple accum.
#Delay time (s)=	2
#Binning=	1
#Readout mode=	Signal
#DeNoise=	Off
#ICS correction=	On
#Dark correction=	Off
#Inst. Process=	Off
#Detector Gain=	Best Dynamic
#Detector ADC=	50 kHz HS
#Detector temperature (°C)=	-60.09
#Instrument=	LabRAM HR Evol
#Detector=	SIN-EM FIVIS
#Objective=	x100_VIS_LWD
#Grating=	1800 (450-850nm)
#ND Filter=	100%
#Laser=	532nm_Edge
#Hole=	100.021
#Temperature=	0
#Range=	Visible
#StageXY=	75x50mm Scan+
#StageZ=	Z motor
#X (µm)=	0
#Y (µm)=	0
#Z (µm)=	-51.2
#Full time(mm:ss)=	3:17
#Project=	21_11_26
#Sample=	BU19(2)w
#Site=	
#Title=	BU19(2)w-A-FF2-FI05-V_1800 (450-850nm)_532nm_Edge_100%_x100_VIS_LWD_H100um_30sX2
#Remark=	
#Date=	26.11.2021 15:09
#Acquired=	26.11.2021 15:09:56
#Base:Fit=	16.12.2021 16:00:56
#Base:Fit=	16.12.2021 16:11:37
#Base:Sub=	16.12.2021 16:11:38
1202.72	11.625
1203	17.281
1203.28	13.0096
1203.56	5.31161
1203.84	1.89182
1204.11	16.8133
1204.39	4.86697
1204.67	1.61287
1204.95	-2.70374
1205.23	-2.78233
1205.5	5.69699
1205.78	0.200104
1206.06	15.0938
1206.34	14.9468
1206.61	-1.28656
1206.89	7.15076
1207.17	-0.494431
1207.45	7.94989
1207.73	3.5654
1208	21.6673
1208.28	8.73671
1208.56	11.854
1208.84	4.25017
1209.11	3.07281
1209.39	1.89775
1209.67	11.4423
1209.95	-2.51906
1210.23	3.82233
1210.5	-5.89404
1210.78	9.99446
1211.06	11.9896
1211.34	6.52565
1211.61	4.25433
1211.89	-10.8019
1212.17	2.92661
1212.45	4.92058
1212.72	-6.91928
1213	-12.364
1213.28	6.69006
1213.56	0.196671
1213.83	-0.956512
1214.11	1.06682
1214.39	3.14082
1214.67	-3.30417
1214.94	20.056
1215.22	-4.49855
1215.5	-18.4123
1215.78	-21.6818
1216.05	13.3641
1216.33	8.98473
1216.61	0.331436
1216.89	0.17601
1217.16	12.7822
1217.44	5.20903
1217.72	-0.232132
1218	6.0117
1218.27	-7.90984
1218.55	0.468231
1218.83	-7.07451
1219.1	6.62621
1219.38	7.60078
1219.66	8.56973
1219.94	-0.0162201
1220.21	0.935745
1220.49	0.855896
1220.77	2.9043
1221.04	-6.72635
1221.32	0.603088
1221.6	4.73347
1221.88	-22.9412
1222.15	1.30693
1222.43	-6.26358
1222.71	6.2778
1222.98	-6.6031
1223.26	-5.71454
1223.54	8.92291
1223.81	-2.86813
1224.09	-7.24123
1224.37	-10.5558
1224.65	8.32611
1224.92	1.87375
1225.2	-4.56505
1225.48	-2.53738
1225.76	1.63229
1226.03	-8.98216
1226.31	6.80415
1226.59	-10.1804
1226.86	2.39691
1227.14	-0.887558
1227.42	5.33141
1227.69	-3.2946
1227.97	-2.51266
1228.25	5.71222
1228.52	5.51381
1228.8	-4.22955
1229.08	2.89409
1229.35	4.89954
1229.63	0.0714569
1229.91	4.64973
1230.18	-4.06403
1230.46	5.14885
1230.74	16.5799
1231.01	13.3644
1231.29	-2.63472
1231.57	1.09021
1231.84	-5.25703
1232.12	0.964172
1232.4	-0.173584
1232.67	-5.53134
1232.95	-0.362823
1233.23	-5.70724
1233.5	-2.65511
1233.78	7.76428
1234.06	-1.75835
1234.33	1.3322
1234.61	-6.0817
1234.89	-1.92863
1235.16	-16.6889
1235.44	-6.24158
1235.71	-4.2001
1235.99	-7.40874
1236.27	5.1454
1236.54	0.856903
1236.82	3.90572
1237.1	2.74229
1237.37	1.56656
1237.65	-1.73424
1237.93	11.7653
1238.2	4.26016
1238.48	-11.6358
1238.76	3.95067
1239.03	-0.380585
1239.31	-0.494766
1239.58	-1.64963
1239.86	18.1686
1240.14	8.64195
1240.41	-4.02121
1240.69	-3.05144
1240.97	-7.31604
1241.24	-0.0447998
1241.52	-10.5968
1241.79	-3.35396
1242.07	13.3006
1242.35	4.81552
1242.62	7.88683
1242.9	7.82402
1243.18	-5.84714
1243.45	1.44205
1243.73	-0.732925
1244	9.67668
1244.28	-2.96405
1244.56	-0.94487
1244.83	14.6907
1245.11	0.968185
1245.39	7.13602
1245.66	2.81688
1245.94	11.0484
1246.21	-0.61499
1246.49	-16.42
1246.76	5.47273
1247.04	2.26077
1247.32	0.0904999
1247.59	10.4666
1247.87	16.67
1248.14	-2.26309
1248.42	5.95706
1248.7	7.93553
1248.97	5.7621
1249.25	-0.570953
1249.52	2.51247
1249.8	19.1626
1250.08	12.8097
1250.35	12.7426
1250.63	12.6263
1250.9	-5.27197
1251.18	-1.20595
1251.45	9.13387
1251.73	11.1167
1252.01	3.6981
1252.28	4.63571
1252.56	1.39647
1252.83	20.0822
1253.11	4.30954
1253.39	8.3764
1253.66	2.02777
1253.94	12.3983
1254.21	12.3687
1254.49	14.4336
1254.76	7.10902
1255.04	11.2404
1255.31	14.3088
1255.59	16.3513
1255.87	-3.55341
1256.14	1.59441
1256.42	22.427
1256.69	19.2501
1256.97	23.3997
1257.24	26.4831
1257.52	27.454
1257.79	23.1814
1258.07	35.6308
1258.35	27.1981
1258.62	31.2944
1258.9	30.1637
1259.17	38.3971
1259.45	22.6765
1259.72	24.733
1260	34.1057
1260.27	17.4392
1260.55	30.8963
1260.82	50.6146
1261.1	46.2888
1261.37	41.9962
1261.65	60.6746
1261.92	76.306
1262.2	70.2433
1262.48	88.3331
1262.75	109.392
1263.02	116.122
1263.3	129.234
1263.58	112.34
1263.85	137.656
1264.13	109.67
1264.4	109.922
1264.68	71.3279
1264.95	71.0983
1265.23	72.0225
1265.5	48.9782
1265.78	43.6804
1266.05	42.5392
1266.33	27.8604
1266.6	28.8738
1266.88	28.8583
1267.15	27.8103
1267.43	32.0008
1267.7	27.8366
1267.98	36.2291
1268.25	35.2184
1268.53	24.8144
1268.8	15.4301
1269.08	40.5699
1269.35	32.1855
1269.63	21.6941
1269.9	31.0657
1270.18	32.0158
1270.45	24.5672
1270.73	27.6144
1271	23.3272
1271.28	32.6631
1271.55	40.9767
1271.83	29.3923
1272.1	40.8806
1272.38	28.34
1272.65	18.9467
1272.93	32.6125
1273.2	37.876
1273.47	30.569
1273.75	43.1749
1274.03	36.9145
1274.3	37.993
1274.57	44.2915
1274.85	33.7778
1275.12	48.4167
1275.4	41.0399
1275.67	33.6902
1275.95	28.4504
1276.22	32.6566
1276.5	31.6331
1276.77	50.5418
1277.05	52.6604
1277.32	40.0636
1277.6	47.4477
1277.87	32.7704
1278.14	58.0215
1278.42	63.3013
1278.69	71.7341
1278.97	74.9414
1279.24	72.8558
1279.52	77.0822
1279.79	91.7647
1280.07	114.853
1280.34	135.821
1280.61	163.125
1280.89	193.629
1281.16	252.548
1281.44	386.262
1281.71	467.466
1281.99	665.428
1282.26	908.535
1282.53	1182.32
1282.81	1463.56
1283.08	1844.32
1283.36	2054.76
1283.63	2053.81
1283.91	1857.5
1284.18	1396.13
1284.45	1023.73
1284.73	701.786
1285	443.767
1285.28	306.753
1285.55	232.756
1285.83	167.307
1286.1	139.922
1286.37	108.389
1286.65	109.421
1286.92	87.2328
1287.2	80.8947
1287.47	75.596
1287.75	62.9055
1288.02	55.4733
1288.29	55.4292
1288.57	53.3069
1288.84	32.2524
1289.12	35.4137
1289.39	45.9643
1289.66	43.8925
1289.94	41.8221
1290.21	28.1718
1290.49	28.2024
1290.76	25.0298
1291.03	30.2591
1291.31	20.7558
1291.58	10.2098
1291.86	24.9427
1292.13	35.4563
1292.4	38.6092
1292.68	37.5641
1292.95	15.4243
1293.22	32.2486
1293.5	29.0946
1293.77	9.15105
1294.05	25.0471
1294.32	9.32785
1294.59	29.3847
1294.87	28.3259
1295.14	25.1407
1295.42	22.0161
1295.69	21.0578
1295.96	13.7943
1296.24	22.4073
1296.51	15.1057
1296.79	17.2419
1297.06	4.56207
1297.33	19.3335
1297.61	24.5753
1297.88	20.2997
1298.15	8.62668
1298.43	26.5196
1298.7	15.9875
1298.97	9.63387
1299.25	14.8772
1299.52	7.45735
1299.79	16.9237
1300.07	20.0903
1300.34	7.46597
1300.62	23.3301
1300.89	12.7817
1301.16	-2.00658
1301.44	21.2176
1301.71	24.4019
1301.98	-1.95311
1302.25	14.9853
1302.53	26.6306
1302.8	24.5315
1303.08	3.40874
1303.35	16.0767
1303.62	5.49739
1303.9	16.025
1304.17	9.6895
1304.44	13.9271
1304.72	12.8808
1304.99	-1.89594
1305.26	12.869
1305.54	-0.884277
1305.81	-1.97795
1306.08	10.6469
1306.35	0.0538025
1306.63	1.07745
1306.9	5.28864
1307.18	6.35487
1307.45	-5.21446
1307.72	13.7901
1308	9.58145
1308.27	11.703
1308.54	2.23645
1308.81	3.29257
1309.09	-7.22844
1309.36	2.31419
1309.63	2.36058
1309.91	2.40811
1310.18	9.83243
1310.45	-0.71022
1310.73	3.51399
1311	6.69733
1311.27	4.61385
1311.55	10.976
1311.82	2.56128
1312.09	-2.67981
1312.37	5.82159
1312.64	-3.62935
1312.91	22.8032
1313.18	12.2541
1313.46	4.8483
1313.73	5.91693
1314	2.75117
1314.28	-1.46558
1314.55	-3.55539
1314.82	5.97951
1315.09	2.85672
1315.37	11.3532
1315.64	-0.212158
1315.91	-2.2728
1316.18	-0.108917
1316.46	8.35535
1316.73	7.30936
1317	17.8852
1317.28	6.28694
1317.55	-8.47296
1317.82	7.42529
1318.09	3.2475
1318.37	7.51323
1318.64	2.2664
1318.91	-8.26659
1319.18	5.49529
1319.46	-7.16098
1319.73	-11.3674
1320	1.32935
1320.28	-3.90997
1320.55	1.40335
1320.82	-5.97459
1321.09	-7.03204
1321.37	2.45508
1321.64	-11.3012
1321.91	-2.8925
1322.18	7.65169
1322.46	1.28983
1322.73	0.236465
1323	9.7292
1323.27	2.3461
1323.55	-1.88133
1323.82	-3.93372
1324.09	5.59763
1324.36	-10.183
1324.64	-3.83002
1324.91	-9.06602
1325.18	-2.71222
1325.45	-2.66508
1325.73	-2.68561
1326	-0.639359
1326.27	2.43166
1326.54	-4.00203
1326.81	9.64856
1327.09	3.3544
1327.36	7.67168
1327.63	-1.6243
1327.9	-14.1544
1328.18	9.13585
1328.45	10.3128
1328.72	-6.43729
1328.99	-8.44434
1329.27	-1.00238
1329.54	6.39317
1329.81	5.399
1330.08	0.152313
1330.35	8.61259
1330.63	8.62202
1330.9	-14.5815
1331.17	6.49706
1331.44	3.30824
1331.71	7.47824
1331.99	3.20844
1332.26	-1.03799
1332.53	-2.10982
1332.8	-0.0292053
1333.07	-10.5809
1333.35	-2.20041
1333.62	-6.43312
1333.89	13.5109
1334.16	2.98195
1334.43	4.0137
1334.71	1.89841
1334.98	2.93768
1335.25	-5.46155
1335.52	8.18149
1335.79	5.03505
1336.07	2.94165
1336.34	16.5826
1336.61	17.6401
1336.88	9.26471
1337.15	-2.24915
1337.43	9.30528
1337.7	0.94519
1337.97	-1.13023
1338.24	4.10106
1338.51	-1.14214
1338.78	-1.12825
1339.06	-7.40178
1339.33	8.32776
1339.6	25.1198
1339.87	6.326
1340.14	19.9972
1340.42	11.6706
1340.69	10.678
1340.96	1.306
1341.23	6.58441
1341.5	-10.1343
1341.77	18.171
1342.04	8.76915
1342.32	5.6403
1342.59	9.82764
1342.86	16.0946
1343.13	5.62169
1343.4	17.1448
1343.67	9.85432
1343.95	10.9408
1344.22	4.71217
1344.49	3.71878
1344.76	-2.50771
1345.03	11.1169
1345.3	22.631
1345.58	12.1742
1345.85	-1.43251
1346.12	9.01173
1346.39	-0.413162
1346.66	4.75128
1346.93	-0.485748
1347.2	25.5827
1347.47	13.0439
1347.75	6.77617
1348.02	-3.638
1348.29	8.89403
1348.56	9.96779
1348.83	-2.50352
1349.1	6.89299
1349.37	13.1548
1349.65	11.0791
1349.92	-4.53157
1350.19	-2.4348
1350.46	13.196
1350.73	5.92064
1351	12.1634
1351.27	10.0784
1351.54	9.05443
1351.81	21.5296
1352.09	11.1658
1352.36	17.4535
1352.63	17.5326
1352.9	16.5942
1353.17	-4.0938
1353.44	7.43912
1353.71	14.9669
1353.98	15.229
1354.25	29.6526
1354.53	3.34874
1354.8	18.7681
1355.07	12.6129
1355.34	26.1937
1355.61	5.38991
1355.88	5.40465
1356.15	11.765
1356.42	2.48546
1356.69	8.72702
1356.96	18.1081
1357.24	12.9498
1357.51	14.021
1357.78	16.1232
1358.05	32.7542
1358.32	3.70255
1358.59	18.2488
1358.86	6.85095
1359.13	34.8736
1359.4	15.1738
1359.67	16.234
1359.94	24.5564
1360.22	9.00084
1360.49	11.0648
1360.76	18.312
1361.03	19.361
1361.3	16.2908
1361.57	7.02043
1361.84	14.3186
1362.11	22.6477
1362.38	11.2843
1362.65	29.9558
1362.92	28.9532
1363.19	19.6827
1363.46	12.505
1363.73	8.45656
1364	31.3266
1364.28	35.5562
1364.55	37.6817
1364.82	29.4354
1365.09	35.6809
1365.36	34.6586
1365.63	31.5556
1365.9	39.836
1366.17	29.4887
1366.44	21.2158
1366.71	24.3217
1366.98	48.0947
1367.25	34.6257
1367.52	22.2426
1367.79	34.6784
1368.06	31.6664
1368.33	49.3139
1368.6	74.1958
1368.87	102.182
1369.15	123.969
1369.41	110.612
1369.68	73.467
1369.95	63.1519
1370.23	36.3009
1370.5	34.2632
1370.77	44.5919
1371.04	42.5503
1371.31	34.2976
1371.58	39.4521
1371.85	39.4277
1372.12	54.8687
1372.39	40.3839
1372.66	42.4181
1372.93	32.1001
1373.2	41.3947
1373.47	40.3887
1373.74	39.3847
1374.01	33.2341
1374.28	48.7273
1374.55	41.5547
1374.82	33.3542
1375.09	55.0267
1375.36	48.8714
1375.63	50.999
1375.9	47.9981
1376.17	28.476
1376.44	52.2428
1376.71	48.1147
1376.98	63.5566
1377.25	78.966
1377.52	66.5587
1377.79	72.825
1378.06	60.6011
1378.33	71.0616
1378.6	71.2553
1378.87	68.3717
1379.14	77.7543
1379.41	80.8946
1379.68	79.8839
1379.95	82.9932
1380.22	89.1739
1380.49	99.4064
1380.76	88.9275
1381.03	111.483
1381.3	91.8836
1381.57	102.275
1381.84	112.537
1382.11	116.558
1382.38	127.757
1382.65	118.434
1382.92	129.666
1383.19	143.962
1383.46	154.18
1383.73	171.567
1384	186.938
1384.27	226.924
1384.54	269.031
1384.81	300.915
1385.08	386.183
1385.34	542.324
1385.61	722.259
1385.88	1015.11
1386.15	1556.51
1386.42	2359.8
1386.69	3488.09
1386.96	4463.27
1387.23	4550.57
1387.5	3705.27
1387.77	2335.42
1388.04	1446.62
1388.31	887.694
1388.58	571.824
1388.85	412.183
1389.12	319.614
1389.39	262.502
1389.66	211.257
1389.93	160.016
1390.2	152.765
1390.46	128.953
1390.73	118.635
1391	117.654
1391.27	113.481
1391.54	96.0867
1391.81	86.8926
1392.08	84.8338
1392.35	87.8883
1392.62	74.567
1392.89	84.815
1393.16	58.214
1393.43	82.8069
1393.7	71.575
1393.97	57.2774
1394.23	56.2881
1394.5	63.4885
1394.77	64.5507
1395.04	37.9922
1395.31	69.7955
1395.58	64.7784
1395.85	60.7705
1396.12	53.6725
1396.39	67.0266
1396.66	60.9175
1396.93	49.6838
1397.2	63.0092
1397.46	54.8293
1397.73	40.5159
1398	41.5703
1398.27	55.9412
1398.54	43.7383
1398.81	47.9133
1399.08	56.1693
1399.35	32.7048
1399.62	45.078
1399.89	51.2989
1400.16	58.5415
1400.42	37.099
1400.69	47.4222
1400.96	55.7295
1401.23	45.5728
1401.5	47.6649
1401.77	52.8687
1402.04	57.0163
1402.31	58.1807
1402.58	47.1039
1402.84	41.1532
1403.11	40.2863
1403.38	55.8125
1403.65	27.1585
1403.92	67.2524
1404.19	44.6687
1404.46	48.6876
1404.73	52.8807
1404.99	64.1958
1405.26	66.2685
1405.53	60.1201
1405.8	68.3275
1406.07	109.343
1406.34	89.8688
1406.61	113.465
1406.87	111.442
1407.14	125.858
1407.41	143.359
1407.68	162.918
1407.95	211.176
1408.22	237.909
1408.49	230.808
1408.76	251.393
1409.02	219.688
1409.29	179.779
1409.56	154.219
1409.83	135.835
1410.1	93.8451
1410.37	79.5349
1410.63	56.9667
1410.9	57.9721
1411.17	45.6425
1411.44	41.5366
1411.71	39.4959
1411.98	41.5631
1412.25	45.7021
1412.51	46.8101
1412.78	42.8298
1413.05	21.4923
1413.32	38.2312
1413.59	26.095
1413.86	24.9457
1414.12	23.6767
1414.39	43.2589
1414.66	21.9178
1414.93	26.1745
1415.2	15.9419
1415.47	40.6373
1415.73	26.3131
1416	22.2605
1416.27	33.6213
1416.54	22.3938
1416.81	18.3549
1417.07	18.4245
1417.34	25.6881
1417.61	21.652
1417.88	27.8874
1418.15	15.6163
1418.42	18.75
1418.68	30.1092
1418.95	21.9453
1419.22	27.1328
1419.49	18.9618
1419.76	17.9571
1420.02	31.3198
1420.29	20.0205
1420.56	17.9721
1420.83	9.75903
1421.1	26.1861
1421.36	25.1638
1421.63	14.9257
1421.9	35.5113
1422.17	13.0301
1422.44	14.1722
1422.7	23.5339
1422.97	15.4727
1423.24	22.8994
1423.51	33.434
1423.77	18.5553
1424.04	-3.37698
1424.31	34.6614
1424.58	29.3614
1424.85	6.86688
1425.11	25.4149
1425.38	22.5344
1425.65	28.7594
1425.92	16.4646
1426.19	15.5544
1426.45	13.5301
1426.72	19.6893
1426.99	12.4985
1427.26	13.5089
1427.52	1.19211
1427.79	9.3494
1428.06	11.3722
1428.33	0.117462
1428.59	18.5758
1428.86	26.8112
1429.13	13.5542
1429.4	2.34796
1429.67	1.3875
1429.93	3.50708
1430.2	14.86
1430.47	3.68327
1430.74	17.0913
1431	12.069
1431.27	11.1738
1431.54	6.15308
1431.81	18.5438
1432.07	11.3994
1432.34	22.6894
1432.61	12.4178
1432.87	13.4514
1433.14	11.3765
1433.41	16.4641
1433.68	-9.20424
1433.95	11.2476
1434.21	-2.0773
1434.48	10.229
1434.75	1.14182
1435.01	17.6152
1435.28	12.5382
1435.55	23.849
1435.82	8.51068
1436.08	14.6867
1436.35	14.7106
1436.62	10.635
1436.89	-2.66507
1437.15	12.7184
1437.42	2.49409
1437.69	12.7677
1437.95	10.7325
1438.22	15.8786
1438.49	8.756
1438.76	10.8712
1439.02	7.85216
1439.29	5.84503
1439.56	17.1606
1439.82	5.95665
1440.09	-0.112717
1440.36	8.17781
1440.63	4.13603
1440.89	8.28436
1441.16	-1.93279
1441.43	4.26506
1441.69	2.233
1441.96	1.20914
1442.23	15.5785
1442.49	10.5276
1442.76	-3.78995
1443.03	7.563
1443.3	7.57051
1443.56	11.6706
1443.83	2.44702
1444.1	14.7614
1444.36	-2.64066
1444.63	10.7305
1444.9	-2.51028
1445.16	12.9535
1445.43	4.84239
1445.7	1.77963
1445.97	20.2584
1446.23	-1.27026
1446.5	9.00191
1446.77	-1.239
1447.03	3.90462
1447.3	-2.23334
1447.57	14.1843
1447.83	7.01149
1448.1	4.97102
1448.37	10.1253
1448.63	15.3173
1448.9	7.18857
1449.17	2.10175
1449.43	17.5131
1449.7	-2.98709
1449.97	1.119
1450.23	3.1666
1450.5	7.26367
1450.77	20.6006
1451.03	2.16275
1451.3	4.22507
1451.57	22.6828
1451.83	10.3924
1452.1	12.4495
1452.37	-0.857971
1452.63	-0.838974
1452.9	14.5586
1453.17	9.47249
1453.43	13.6212
1453.7	-3.75459
1453.97	9.59598
1454.23	-3.71375
1454.5	1.4254
1454.77	2.47598
1455.03	4.55145
1455.3	9.69475
1455.56	7.6575
1455.83	19.9828
1456.1	-9.67584
1456.36	-14.7586
1456.63	-0.385056
1456.9	-5.50095
1457.16	2.68941
1457.43	3.70717
1457.7	-0.381302
1457.96	8.84984
1458.23	-8.54893
1458.49	-4.42691
1458.76	1.74745
1459.03	7.92839
1459.29	-0.235184
1459.56	13.1136
1459.82	5.96861
1460.09	12.131
1460.36	-5.27617
1460.62	-1.16959
1460.89	8.05595
1461.16	-4.23462
1461.42	8.05226
1461.69	2.92822
1461.95	4.96936
1462.22	-4.25537
1462.49	-5.29193
1462.75	3.90128
1463.02	-8.39716
1463.28	4.87862
1463.55	-5.37396
1463.82	-6.41531
1464.08	-2.31229
1464.35	-3.25641
1464.61	-5.19667
1464.88	-1.01683
1465.15	-7.05264
1465.41	4.08174
1465.68	8.85506
1465.94	-2.515
1466.21	-3.53526
1466.48	9.81125
1466.74	-6.52058
1467.01	0.558792
1467.27	3.61172
1467.54	5.68884
1467.8	-2.46727
1468.07	-2.46315
1468.34	-3.47406
1468.6	5.72032
1468.87	5.73299
1469.13	7.77855
1469.4	0.636505
1469.67	11.8472
1469.93	0.609772
1470.2	6.69714
1470.46	-2.49634
1470.73	2.589
1470.99	2.58228
1471.26	-1.49155
1471.53	-1.50197
1471.79	-3.56055
1472.06	1.52084
1472.32	12.7233
1472.59	6.62094
1472.85	-5.58856
1473.12	7.65707
1473.39	-0.488495
1473.65	-4.57384
1473.92	0.50177
1474.18	-2.56041
1474.45	-7.64838
1474.71	-0.511795
1474.98	4.60735
1475.24	-6.56241
1475.51	-16.7252
1475.78	6.69171
1476.04	-1.45496
1476.31	-2.48511
1476.57	18.8763
1476.84	3.60953
1477.1	-7.59871
1477.37	-0.496979
1477.63	9.66911
1477.9	2.55502
1478.16	-4.55684
1478.43	6.6183
1478.69	-7.64143
1478.96	-8.67337
1479.22	9.605
1479.49	-7.69292
1479.76	4.47534
1480.02	12.5702
1480.29	-1.67975
1480.55	-5.79756
1480.82	4.30872
1481.08	-5.86665
1481.35	6.30183
1481.61	-10.9676
1481.88	-2.82535
1482.14	-9.88922
1482.41	1.31664
1482.67	0.349884
1482.94	5.46487
1483.2	2.4272
1483.47	1.44392
1483.73	-8.68958
1484	-8.68074
1484.26	7.56824
1484.53	-0.623276
1484.79	3.33755
1485.06	-8.00754
1485.32	-5.20836
1485.59	-0.232208
1485.85	0.640228
1486.12	5.13908
1486.38	8.24133
1486.65	11.3643
1486.91	18.2483
1487.18	11.2681
1487.44	-14.0299
1487.71	1.12115
1487.97	-2.96791
1488.24	4.10133
1488.5	-11.1127
1488.77	-2.03485
1489.03	-12.1956
1489.3	-21.3305
1489.56	-0.0955353
1489.83	-8.20042
1490.09	5.95561
1490.36	-0.11084
1490.62	10.0077
1490.89	-9.23083
1491.15	-9.26213
1491.42	8.90739
1491.68	16.9812
1491.95	-10.3209
1492.21	-2.22952
1492.48	-6.26163
1492.74	0.813141
1493	-1.21519
1493.27	6.86938
1493.53	-1.21507
1493.8	5.85095
1494.06	-6.28326
1494.33	2.8196
1494.59	6.87875
1494.86	21.0519
1495.12	-2.20578
1495.39	-3.24413
1495.65	4.7878
1495.92	8.76079
1496.18	-7.45181
1496.45	0.594269
1496.71	2.58925
1496.97	4.58606
1497.24	9.60757
1497.5	13.6443
1497.77	0.523285
1498.03	5.55965
1498.3	-8.57254
1498.56	-3.52408
1498.82	-10.5838
1499.09	-3.5123
1499.35	7.59865
1499.62	3.5744
1499.88	3.59174
1500.15	8.65616
1500.41	1.59628
1500.68	21.7864
1500.94	-6.48833
1501.2	1.58186
1501.47	9.63632
1501.73	-2.51329
1502	-9.58972
1502.26	8.56854
1502.52	2.50539
1502.79	16.6122
1503.05	5.47069
1503.32	12.4912
1503.58	-2.661
1503.85	-1.68767
1504.11	-4.71495
1504.37	-9.74106
1504.64	-5.70097
1504.9	3.37454
1505.17	2.35533
1505.43	-7.74974
1505.7	1.29369
1505.96	18.3717
1506.22	-1.85483
1506.49	-3.88524
1506.75	-6.91597
1507.02	-0.866104
1507.28	7.21909
1507.54	-3.86052
1507.81	0.175415
1508.07	9.23975
1508.34	17.2839
1508.6	3.16319
1508.86	-6.91269
1509.13	-2.87912
1509.39	0.142822
1509.66	-10.9479
1509.92	4.16191
1510.18	1.15585
1510.45	0.156189
1510.71	9.18434
1510.98	-4.96254
1511.24	7.07677
1511.5	7.0174
1511.77	1.90103
1512.03	7.83221
1512.29	-1.32492
1512.56	7.62241
1512.82	11.5528
1513.08	6.47386
1513.35	12.4483
1513.61	4.37274
1513.88	1.33997
1514.14	4.39104
1514.4	9.48228
1514.67	-7.58125
1514.93	2.43634
1515.2	12.4287
1515.46	6.34517
1515.72	16.3261
1515.99	-3.81024
1516.25	12.1775
1516.51	3.10258
1516.78	-9.95921
1517.04	-7.97481
1517.3	-6.99101
1517.57	1.01813
1517.83	-11.0172
1518.09	-11.0114
1518.36	2.05154
1518.62	-0.954254
1518.88	0.0549774
1519.15	-2.95059
1519.41	-4.948
1519.67	0.0751801
1519.94	-0.926468
1520.2	-12.9779
1520.47	8.06525
1520.73	10.0496
1520.99	-1.98497
1521.26	6.05173
1521.52	12.0815
1521.78	14.0871
1522.05	-2.98689
1522.31	9.02745
1522.57	1.97456
1522.84	21.0011
1523.1	11.944
1523.36	15.913
1523.62	6.82025
1523.89	3.72711
