#Acq. time (s)=	30
#Accumulations=	2
#Range (cm-¹)=	1200...2365
#Windows=	3
#Auto scanning=	Off
#Autofocus=	Off
#Macrospot=	Off
#AutoExposure=	Off
#Spike filter=	Multiple accum.
#Delay time (s)=	2
#Binning=	1
#Readout mode=	Signal
#DeNoise=	Off
#ICS correction=	On
#Dark correction=	Off
#Inst. Process=	Off
#Detector Gain=	Best Dynamic
#Detector ADC=	50 kHz HS
#Detector temperature (°C)=	-60.09
#Instrument=	LabRAM HR Evol
#Detector=	SIN-EM FIVIS
#Objective=	x100_VIS_LWD
#Grating=	1800 (450-850nm)
#ND Filter=	100%
#Laser=	532nm_Edge
#Hole=	100.021
#Temperature=	0
#Range=	Visible
#StageXY=	75x50mm Scan+
#StageZ=	Z motor
#X (µm)=	0
#Y (µm)=	0
#Z (µm)=	-47.2
#Full time(mm:ss)=	3:22
#Project=	21_11_26
#Sample=	BU19(2)w
#Site=	
#Title=	BU19(2)w-A-FF1-FI01-V_1800 (450-850nm)_532nm_Edge_100%_x100_VIS_LWD_H100um_30sX2
#Remark=	
#Date=	26.11.2021 11:36
#Acquired=	26.11.2021 11:36:17
#Base:Fit=	16.12.2021 16:00:56
#Base:Sub=	16.12.2021 16:04:20
1202.72	4.7682
1203	8.19299
1203.28	5.08373
1203.56	6.22148
1203.84	4.1189
1204.11	6.33659
1204.39	-0.0421524
1204.67	3.28086
1204.95	18.434
1205.23	7.76345
1205.5	9.98023
1205.78	11.1177
1206.06	3.66098
1206.34	4.79389
1206.61	12.3609
1206.89	2.76717
1207.17	1.75439
1207.45	3.95943
1207.73	9.38288
1208	9.45079
1208.28	10.5935
1208.56	10.6619
1208.84	3.23384
1209.11	0.0891533
1209.39	8.709
1209.67	2.36483
1209.95	3.50963
1210.23	11.0646
1210.5	10.0583
1210.78	6.90094
1211.06	6.95027
1211.34	10.2065
1211.61	4.91888
1211.89	8.17355
1212.17	8.2192
1212.45	7.19913
1212.72	5.12036
1213	6.23723
1213.28	13.7429
1213.56	-0.0472374
1213.83	10.6605
1214.11	12.8418
1214.39	7.58784
1214.67	8.71962
1214.94	1.33187
1215.22	10.9766
1215.5	9.97208
1215.78	6.83704
1216.05	3.69978
1216.33	14.3872
1216.61	3.78408
1216.89	7.0079
1217.16	12.3564
1217.44	1.76744
1217.72	3.93333
1218	2.91092
1218.27	2.95343
1218.55	5.11887
1218.83	5.16095
1219.1	8.39149
1219.38	4.19614
1219.66	5.30441
1219.94	9.59259
1220.21	10.6936
1220.49	7.56055
1220.77	4.42927
1221.04	7.65764
1221.32	5.57972
1221.6	7.7383
1221.88	3.53493
1222.15	5.68536
1222.43	12.0653
1222.71	6.78706
1222.98	6.80257
1223.26	2.58759
1223.54	11.0658
1223.81	5.79843
1224.09	7.93452
1224.37	0.562618
1224.65	2.70425
1224.92	6.95867
1225.2	4.88108
1225.48	12.3097
1225.76	3.91301
1226.03	9.23847
1226.31	11.3984
1226.59	1.93102
1226.86	17.8031
1227.14	10.4388
1227.42	6.24405
1227.69	13.635
1227.97	10.4461
1228.25	4.12479
1228.52	8.33853
1228.8	10.4191
1229.08	7.25336
1229.35	11.4864
1229.63	5.3605
1229.91	7.63
1230.18	14.9886
1230.46	7.58237
1230.74	12.8598
1231.01	8.68607
1231.29	5.52369
1231.57	8.59257
1231.84	13.8893
1232.12	9.71554
1232.4	8.6931
1232.67	13.9692
1232.95	3.49097
1233.23	9.8206
1233.5	15.0959
1233.78	16.1733
1234.06	12.0034
1234.33	13.0878
1234.61	8.9192
1234.89	12.1081
1235.16	11.0947
1235.44	18.484
1235.71	11.1584
1235.99	9.08953
1236.27	13.326
1236.54	3.88753
1236.82	10.2132
1237.1	13.3815
1237.37	17.5951
1237.65	11.2925
1237.93	16.5443
1238.2	13.3941
1238.48	16.5418
1238.76	19.6872
1239.03	12.3487
1239.31	15.5056
1239.58	13.4217
1239.86	12.3884
1240.14	11.3576
1240.41	10.3287
1240.69	10.3495
1240.97	11.4203
1241.24	14.5891
1241.52	16.7083
1241.79	16.7223
1242.07	18.8257
1242.35	18.8373
1242.62	13.6184
1242.9	9.4496
1243.18	14.7179
1243.45	24.18
1243.73	17.9079
1244	12.6853
1244.28	25.2877
1244.56	9.57969
1244.83	16.9312
1245.11	14.8456
1245.39	22.1839
1245.66	17.9917
1245.94	14.8424
1246.21	22.1657
1246.49	15.8909
1246.76	22.1821
1247.04	18.0117
1247.32	21.1664
1247.59	28.5023
1247.87	24.3298
1248.14	21.1975
1248.42	27.4624
1248.7	26.4162
1248.97	28.519
1249.25	28.5387
1249.52	27.5131
1249.8	25.4304
1250.08	26.4881
1250.35	25.4572
1250.63	28.5921
1250.9	17.0857
1251.18	23.3552
1251.45	18.1292
1251.73	27.5335
1252.01	21.2656
1252.28	29.6208
1252.56	28.5747
1252.83	26.4847
1253.11	25.4372
1253.39	22.3045
1253.66	24.3968
1253.94	28.5835
1254.21	28.6086
1254.49	29.6798
1254.76	26.5772
1255.04	22.419
1255.31	31.8286
1255.59	36.024
1255.87	27.6815
1256.14	25.6009
1256.42	22.483
1256.69	29.8107
1256.97	35.0564
1257.24	36.1164
1257.52	31.9449
1257.79	40.2989
1258.07	44.4788
1258.35	57.0126
1258.62	54.9262
1258.9	47.6172
1259.17	47.6047
1259.45	50.744
1259.72	49.7226
1260	50.7918
1260.27	47.711
1260.55	61.2697
1260.82	49.7702
1261.1	60.1792
1261.37	63.2921
1261.65	70.5854
1261.92	77.915
1262.2	84.3045
1262.48	93.9011
1262.75	101.325
1263.02	111.531
1263.3	134.296
1263.58	134.222
1263.85	134.412
1264.13	160.678
1264.4	145.203
1264.68	137.989
1264.95	129.517
1265.23	119.031
1265.5	102.318
1265.78	84.5478
1266.05	77.2188
1266.33	69.9136
1266.6	59.4824
1266.88	55.3263
1267.15	52.2198
1267.43	60.6173
1267.7	63.7938
1267.98	52.3295
1268.25	45.0476
1268.53	43.0056
1268.8	47.2383
1269.08	52.5044
1269.35	48.3397
1269.63	38.9314
1269.9	53.6037
1270.18	43.115
1270.45	46.2374
1270.73	48.3201
1271	51.4457
1271.28	52.484
1271.55	54.5794
1271.83	47.2505
1272.1	46.2209
1272.38	52.5326
1272.65	53.618
1272.93	49.478
1273.2	49.5134
1273.47	51.6449
1273.75	44.3445
1274.03	48.5728
1274.3	46.511
1274.57	52.83
1274.85	47.5996
1275.12	53.8986
1275.4	57.0554
1275.67	61.2729
1275.95	60.2517
1276.22	55.0339
1276.5	60.3171
1276.77	52.9982
1277.05	72.9787
1277.32	56.2028
1277.6	63.592
1277.87	77.2886
1278.14	63.6667
1278.42	73.1599
1278.69	73.1929
1278.97	75.3415
1279.24	84.8384
1279.52	93.2867
1279.79	116.432
1280.07	104.858
1280.34	124.833
1280.61	142.715
1280.89	172.191
1281.16	199.572
1281.44	245.939
1281.71	321.821
1281.99	423.987
1282.26	585.035
1282.53	773.539
1282.81	1021.06
1283.08	1335.63
1283.36	1650.6
1283.63	1910.88
1283.91	2120.34
1284.18	2205.42
1284.45	2115.16
1284.73	1774.09
1285	1387.71
1285.28	994.662
1285.55	710.857
1285.83	463.19
1286.1	349.503
1286.37	259.035
1286.65	194.806
1286.92	169.503
1287.2	130.555
1287.47	116.869
1287.75	116.856
1288.02	105.262
1288.29	90.5238
1288.57	91.5866
1288.84	85.2881
1289.12	81.1
1289.39	79.0264
1289.66	67.4807
1289.94	68.5676
1290.21	67.5514
1290.49	68.6374
1290.76	52.8482
1291.03	62.3291
1291.31	40.2175
1291.58	50.7609
1291.86	66.5708
1292.13	62.3664
1292.4	49.742
1292.68	55.0276
1292.95	53.9814
1293.22	51.8801
1293.5	50.8453
1293.77	48.7841
1294.05	35.1366
1294.32	44.6756
1294.59	48.9181
1294.87	46.8228
1295.14	41.5574
1295.42	48.97
1295.69	50.0805
1295.96	37.4804
1296.24	50.2337
1296.51	46.0615
1296.79	45.0287
1297.06	43.9883
1297.33	38.7078
1297.61	38.7069
1297.88	41.8729
1298.15	36.5853
1298.43	37.6331
1298.7	36.6019
1298.97	36.6097
1299.25	41.8897
1299.52	39.7806
1299.79	31.3367
1300.07	35.5731
1300.34	34.5473
1300.62	44.0738
1300.89	33.5328
1301.16	35.656
1301.44	31.445
1301.71	26.1853
1301.98	29.3817
1302.25	35.7468
1302.53	43.164
1302.8	32.6192
1303.08	27.3525
1303.35	30.5322
1303.62	29.4834
1303.9	36.8772
1304.17	32.6666
1304.44	36.9087
1304.72	32.7015
1304.99	37.9966
1305.26	41.1701
1305.54	26.392
1305.81	36.9457
1306.08	30.6124
1306.35	32.7197
1306.63	28.5019
1306.9	31.6759
1307.18	29.5837
1307.45	26.4437
1307.72	23.299
1308	28.5892
1308.27	28.606
1308.54	26.5183
1308.81	28.6409
1309.09	28.6629
1309.36	36.0776
1309.63	27.6667
1309.91	31.9168
1310.18	32.9979
1310.45	34.0693
1310.73	24.5849
1311	37.2666
1311.27	25.6803
1311.55	24.6475
1311.82	33.1129
1312.09	28.9162
1312.37	24.7256
1312.64	30.0344
1312.91	31.1147
1313.18	23.7392
1313.46	22.6912
1313.73	19.5408
1314	20.6097
1314.28	23.7905
1314.55	26.9764
1314.82	27.0006
1315.09	25.972
1315.37	20.7218
1315.64	20.7499
1315.91	27.1155
1316.18	29.2577
1316.46	21.8811
1316.73	25.0653
1317	30.3629
1317.28	26.1567
1317.55	19.8408
1317.82	23.0396
1318.09	33.6303
1318.37	24.1488
1318.64	22.0595
1318.91	25.2513
1319.18	27.3854
1319.46	27.4044
1319.73	26.366
1320	26.3844
1320.28	26.4108
1320.55	31.7153
1320.82	26.4503
1321.09	18.011
1321.37	14.85
1321.64	21.1882
1321.91	14.8557
1322.18	25.4184
1322.46	19.0902
1322.73	29.6507
1323	22.2796
1323.27	20.1826
1323.55	29.6801
1323.82	23.3849
1324.09	24.4648
1324.36	27.652
1324.64	26.6178
1324.91	25.5871
1325.18	27.7165
1325.45	19.3082
1325.73	22.4766
1326	21.4143
1326.27	21.3978
1326.54	25.5818
1326.81	20.323
1327.09	20.3411
1327.36	21.4392
1327.63	24.6671
1327.9	19.4489
1328.18	32.1416
1328.45	22.7079
1328.72	26.9773
1328.99	21.7499
1329.27	22.8353
1329.54	23.9054
1329.81	20.7717
1330.08	18.6828
1330.35	28.1961
1330.63	21.8818
1330.9	25.0572
1331.17	20.847
1331.44	16.635
1331.71	25.0642
1331.99	15.5786
1332.26	28.2156
1332.53	28.2194
1332.8	29.2737
1333.07	29.2724
1333.35	22.9615
1333.62	25.066
1333.89	26.1201
1334.16	28.2254
1334.43	28.2299
1334.71	24.0357
1334.98	26.1433
1335.25	14.6089
1335.52	20.9183
1335.79	16.7347
1336.07	23.0427
1336.34	22.0082
1336.61	24.1209
1336.88	22.0402
1337.15	18.9132
1337.43	25.2223
1337.7	22.0978
1337.97	20.0202
1338.24	27.3647
1338.51	24.2312
1338.78	16.9154
1339.06	17.9785
1339.33	22.1863
1339.6	21.1636
1339.87	24.334
1340.14	25.4117
1340.42	23.3456
1340.69	26.5167
1340.96	24.4512
1341.23	27.6184
1341.5	19.2643
1341.77	28.7109
1342.04	20.3533
1342.32	29.7915
1342.59	24.5693
1342.86	21.4388
1343.13	21.4484
1343.4	19.3745
1343.67	23.5804
1343.95	13.147
1344.22	21.5406
1344.49	26.7986
1344.76	29.9638
1345.03	26.8473
1345.3	26.8631
1345.58	24.784
1345.85	24.7896
1346.12	28.9789
1346.39	22.715
1346.66	31.0603
1346.93	21.6717
1347.2	28.9825
1347.47	27.9446
1347.75	16.4832
1348.02	17.5425
1348.29	25.9014
1348.56	20.7123
1348.83	25.9467
1349.1	25.964
1349.37	25.9794
1349.65	30.1605
1349.92	23.9267
1350.19	23.9429
1350.46	23.9593
1350.73	23.9754
1351	17.7436
1351.27	25.039
1351.54	31.2976
1351.81	37.5465
1352.09	19.8918
1352.36	26.1586
1352.63	34.5155
1352.9	32.4813
1353.17	27.3315
1353.44	30.4941
1353.71	23.2962
1353.98	28.6012
1354.25	28.5617
1354.53	27.4417
1354.8	25.3195
1355.07	27.4347
1355.34	28.5093
1355.61	29.5521
1355.88	31.6453
1356.15	34.8174
1356.42	25.5022
1356.69	31.7496
1356.96	28.6557
1357.24	30.7563
1357.51	35.9712
1357.78	28.722
1358.05	34.9697
1358.32	31.8719
1358.59	35.0016
1358.86	39.1689
1359.13	36.0696
1359.4	30.8978
1359.67	29.88
1359.94	35.0856
1360.22	37.1688
1360.49	38.2113
1360.76	39.2548
1361.03	28.91
1361.3	34.1137
1361.57	35.1786
1361.84	38.3133
1362.11	38.339
1362.38	26.9677
1362.65	42.5231
1362.92	41.5097
1363.19	40.5018
1363.46	38.4667
1363.73	39.5469
1364	45.8024
1364.28	44.8082
1364.55	50.0172
1364.82	52.1132
1365.09	41.7768
1365.36	54.2184
1365.63	49.051
1365.9	51.1299
1366.17	48.0349
1366.44	50.1144
1366.71	52.1918
1366.98	48.0589
1367.25	47.0246
1367.52	40.8402
1367.79	41.8963
1368.06	47.1062
1368.33	47.1441
1368.6	55.4503
1368.87	59.6224
1369.15	79.3025
1369.41	110.361
1369.68	136.253
1369.95	140.398
1370.23	128.003
1370.5	89.7701
1370.77	58.7655
1371.04	59.8167
1371.31	63.9613
1371.58	48.4712
1371.85	50.5368
1372.12	54.6593
1372.39	58.78
1372.66	54.6508
1372.93	55.6874
1373.2	51.5786
1373.47	53.6587
1373.74	49.5555
1374.01	59.8819
1374.28	50.6311
1374.55	56.8377
1374.82	58.923
1375.09	59.9766
1375.36	64.1152
1375.63	61.0603
1375.9	59.0441
1376.17	65.2542
1376.44	65.2916
1376.71	66.3256
1376.98	77.6576
1377.25	70.4434
1377.52	72.4863
1377.79	77.6775
1378.06	64.3577
1378.33	76.7885
1378.6	67.6059
1378.87	70.7898
1379.14	79.0883
1379.41	77.0533
1379.68	82.2234
1379.95	78.1144
1380.22	85.3343
1380.49	86.3414
1380.76	85.2408
1381.03	95.5015
1381.3	98.5671
1381.57	107.878
1381.84	109.928
1382.11	115.028
1382.38	118.064
1382.65	125.217
1382.92	123.135
1383.19	133.365
1383.46	143.606
1383.73	159.992
1384	167.165
1384.27	186.646
1384.54	223.595
1384.81	249.283
1385.08	276.031
1385.34	338.723
1385.61	434.341
1385.88	560.756
1386.15	757.021
1386.42	1096.02
1386.69	1628.3
1386.96	2434.81
1387.23	3458.87
1387.5	4440.37
1387.77	4942.95
1388.04	4599.14
1388.31	3573.44
1388.58	2361.07
1388.85	1513.2
1389.12	924.106
1389.39	632.131
1389.66	451.503
1389.93	336.579
1390.2	266.677
1390.46	221.336
1390.73	196.663
1391	163.874
1391.27	149.474
1391.54	134.115
1391.81	125.933
1392.08	123.877
1392.35	100.307
1392.62	110.548
1392.89	101.339
1393.16	97.2552
1393.43	92.1524
1393.7	85.0054
1393.97	90.1423
1394.23	82.999
1394.5	70.742
1394.77	80.9985
1395.04	86.1405
1395.31	64.6956
1395.58	78.0492
1395.85	66.8344
1396.12	74.036
1396.39	73.0398
1396.66	71.0139
1396.93	72.0551
1397.2	71.0484
1397.46	64.9197
1397.73	71.0686
1398	59.8379
1398.27	64.9815
1398.54	56.8362
1398.81	61.9933
1399.08	68.1694
1399.35	68.2057
1399.62	58.0215
1399.89	60.1094
1400.16	68.3377
1400.42	63.2496
1400.69	63.2943
1400.96	56.1832
1401.23	58.2731
1401.5	51.1316
1401.77	58.3418
1402.04	58.3713
1402.31	61.5081
1402.58	55.4449
1402.84	71.9438
1403.11	62.7878
1403.38	58.7446
1403.65	60.8429
1403.92	62.9274
1404.19	57.8045
1404.46	72.1425
1404.73	76.2931
1404.99	77.3389
1405.26	67.0971
1405.53	77.3649
1405.8	84.5515
1406.07	77.383
1406.34	94.8212
1406.61	103.037
1406.87	115.355
1407.14	110.267
1407.41	127.734
1407.68	138.03
1407.95	172.928
1408.22	186.299
1408.49	206.849
1408.76	227.401
1409.02	264.368
1409.29	269.554
1409.56	267.558
1409.83	244.02
1410.1	192.775
1410.37	169.212
1410.63	142.535
1410.9	116.881
1411.17	92.262
1411.44	74.8396
1411.71	76.8988
1411.98	78.9619
1412.25	59.5221
1412.51	46.2448
1412.78	64.7465
1413.05	44.3285
1413.32	46.5092
1413.59	48.6444
1413.86	49.6336
1414.12	48.5223
1414.39	30.1108
1414.66	41.4732
1414.93	45.6454
1415.2	44.6421
1415.47	37.487
1415.73	37.516
1416	35.4932
1416.27	34.501
1416.54	41.7242
1416.81	39.7065
1417.07	28.4446
1417.34	30.5353
1417.61	41.8726
1417.88	32.6621
1418.15	34.7492
1418.42	31.6962
1418.68	34.8099
1418.95	30.7308
1419.22	40.0088
1419.49	28.7335
1419.76	30.8095
1420.02	34.9345
1420.29	28.7845
1420.56	27.773
1420.83	30.8679
1421.1	28.8277
1421.36	39.1076
1421.63	32.9703
1421.9	33.0018
1422.17	36.1279
1422.44	34.1259
1422.7	36.2319
1422.97	31.1589
1423.24	29.1866
1423.51	29.2721
1423.77	31.1981
1424.04	32.1086
1424.31	36.2561
1424.58	24.9435
1424.85	32.1425
1425.11	28.0898
1425.38	26.1105
1425.65	24.0939
1425.92	28.2143
1426.19	35.4446
1426.45	29.3112
1426.72	25.2234
1426.99	23.1832
1427.26	29.3441
1427.52	26.2768
1427.79	30.3754
1428.06	23.2112
1428.33	25.2758
1428.59	25.298
1428.86	30.4444
1429.13	26.3787
1429.4	24.3619
1429.67	29.5158
1429.93	18.2842
1430.2	14.2234
1430.47	23.4863
1430.74	20.4495
1431	24.594
1431.27	26.6979
1431.54	24.6926
1431.81	16.5178
1432.07	18.5961
1432.34	21.6902
1432.61	19.65
1432.87	19.6668
1433.14	19.6753
1433.41	18.6545
1433.68	20.7059
1433.95	21.7331
1434.21	21.744
1434.48	22.7871
1434.75	12.5947
1435.01	18.7777
1435.28	20.8543
1435.55	14.7309
1435.82	14.7543
1436.08	20.9247
1436.35	18.8964
1436.62	19.9416
1436.89	20.9855
1437.15	17.9312
1437.42	18.9751
1437.69	13.8766
1437.95	21.0644
1438.22	15.965
1438.49	15.9918
1438.76	20.1209
1439.02	15.0277
1439.29	24.2736
1439.56	24.3005
1439.82	12.0372
1440.09	16.1715
1440.36	14.159
1440.63	15.2141
1440.89	23.4442
1441.16	17.3158
1441.43	15.2911
1441.69	20.4378
1441.96	18.4014
1442.23	12.2687
1442.49	13.3269
1442.76	14.3767
1443.03	13.3839
1443.3	15.4517
1443.56	12.39
1443.83	16.5069
1444.1	17.5495
1444.36	14.495
1444.63	15.5459
1444.9	14.5574
1445.16	17.6691
1445.43	17.7083
1445.7	18.7524
1445.97	13.6402
1446.23	15.7099
1446.5	17.7794
1446.77	13.6949
1447.03	23.9688
1447.3	15.7822
1447.57	14.7738
1447.83	10.6882
1448.1	9.6802
1448.37	8.67636
1448.63	13.8325
1448.9	12.8393
1449.17	21.069
1449.43	11.8588
1449.7	19.0554
1449.97	11.8916
1450.23	13.9558
1450.5	12.9439
1450.77	6.81064
1451.03	12.9784
1451.3	14.0205
1451.57	14.0372
1451.83	12.0037
1452.1	7.92162
1452.37	14.0864
1452.63	15.1294
1452.9	18.2243
1453.17	12.0998
1453.43	13.1504
1453.7	10.1008
1453.97	16.2704
1454.23	14.2376
1454.5	13.2304
1454.77	6.07762
1455.03	9.17186
1455.3	11.2399
1455.56	8.1829
1455.83	8.20359
1456.1	9.25564
1456.36	13.3792
1456.63	13.3987
1456.9	15.464
1457.16	16.4999
1457.43	19.5849
1457.7	16.527
1457.96	12.4454
1458.23	0.170244
1458.49	8.38461
1458.76	5.33147
1459.03	17.6464
1459.29	12.5453
1459.56	11.5412
1459.82	16.684
1460.09	6.45521
1460.36	10.5693
1460.62	4.43813
1460.89	10.5997
1461.16	11.6376
1461.42	8.57781
1461.69	8.5907
1461.95	11.6744
1462.22	10.6614
1462.49	8.62441
1462.75	13.7505
1463.02	13.7584
1463.28	10.6969
1463.55	7.63633
1463.82	6.623
1464.08	7.66168
1464.35	14.851
1464.61	11.8214
1464.88	12.8786
1465.15	11.8938
1465.41	6.76031
1465.68	2.61922
1465.94	13.8335
1466.21	12.8255
1466.48	6.73202
1466.74	6.74526
1467.01	8.78519
1467.27	9.8166
1467.54	8.81734
1467.8	5.7709
1468.07	7.8251
1468.34	9.88006
1468.6	5.81562
1468.87	7.87128
1469.13	6.86534
1469.4	9.93736
1469.67	7.90886
1469.93	-0.239355
1470.2	6.90438
1470.46	10.9895
1470.73	8.96143
1470.99	7.95357
1471.26	7.96642
1471.53	8.99529
1471.79	6.96591
1472.06	4.93937
1472.32	13.0986
1472.59	4.96631
1472.85	13.1266
1473.12	10.086
1473.39	13.1525
1473.65	6.03513
1473.92	6.04451
1474.18	10.1258
1474.45	10.1378
1474.71	7.09971
1474.98	1.01174
1475.24	9.17134
1475.51	9.18667
1475.78	10.2179
1476.04	9.21093
1476.31	10.2375
1476.57	13.3003
1476.84	14.3281
1477.1	6.19711
1477.37	14.3417
1477.63	8.25004
1477.9	12.3306
1478.16	6.24196
1478.43	7.26835
1478.69	8.2912
1478.96	10.3321
1479.22	10.3396
1479.49	12.3785
1479.76	12.3838
1480.02	9.34044
1480.29	14.423
1480.55	11.3742
1480.82	10.3601
1481.08	12.3945
1481.35	4.28669
1481.61	11.3949
1481.88	3.29566
1482.14	7.37335
1482.41	13.4831
1482.67	6.39969
1482.94	-0.688234
1483.2	4.40085
1483.47	9.49511
1483.73	6.46422
1484	10.5389
1484.26	11.5653
1484.53	8.51512
1484.79	10.5339
1485.06	5.43364
1485.32	11.4675
1485.59	8.4239
1485.85	3.3508
1486.12	5.47143
1486.38	16.6416
1486.65	9.57556
1486.91	11.5689
1487.18	10.5898
1487.44	10.6081
1487.71	3.51551
1487.97	10.609
1488.24	11.6274
1488.5	8.59417
1488.77	11.6338
1489.03	10.6226
1489.3	13.6618
1489.56	8.6089
1489.83	4.5697
1490.09	0.531672
1490.36	7.62417
1490.62	7.63463
1490.89	13.7099
1491.15	5.62106
1491.42	8.65794
1491.68	10.6869
1491.95	13.7288
1492.21	2.61827
1492.48	10.7187
1492.74	5.67279
1493	11.747
1493.27	3.66846
1493.53	3.67872
1493.8	7.72994
1494.06	10.7711
1494.33	9.771
1494.59	7.76203
1494.86	3.73141
1495.12	10.8166
1495.39	10.8197
1495.65	4.754
1495.92	7.78106
1496.18	5.75968
1496.45	9.80118
1496.71	6.77639
1496.97	8.8
1497.24	8.80395
1497.5	5.78516
1497.77	7.81271
1498.03	9.83816
1498.3	11.8647
1498.56	2.79144
1498.82	2.8013
1499.09	4.83002
1499.35	7.86851
1499.62	8.88938
1499.88	7.89229
1500.15	9.92359
1500.41	4.88589
1500.68	6.91346
1500.94	5.91122
1501.2	5.91855
1501.47	10.9701
1501.73	16.0165
1502	0.884445
1502.26	5.93746
1502.52	7.96239
1502.79	3.93082
1503.05	7.9666
1503.32	7.96688
1503.58	7.97029
1503.85	8.97939
1504.11	9.99544
1504.37	7.99047
1504.64	8.00006
1504.9	9.01649
1505.17	10.0307
1505.43	6.00085
1505.7	4.99454
1505.96	7.00748
1506.22	11.0314
1506.49	16.0731
1506.75	4.99732
1507.02	10.0435
1507.28	9.04906
1507.54	10.0655
1507.81	7.05132
1508.07	8.06573
1508.34	7.06236
1508.6	7.06721
1508.86	4.05204
1509.13	8.09065
1509.39	7.09036
1509.66	13.1424
1509.92	11.1336
1510.18	7.1138
1510.45	15.1854
1510.71	8.12963
1510.98	3.09127
1511.24	7.11843
1511.5	8.12096
1511.77	10.1244
1512.03	7.09089
1512.29	14.1154
1512.56	9.0742
1512.82	6.04956
1513.08	9.05876
1513.35	3.03091
1513.61	13.0692
1513.88	5.0408
1514.14	9.07131
1514.4	9.09262
1514.67	10.1067
1514.93	8.09879
1515.2	9.09962
1515.46	15.118
1515.72	2.06373
1515.99	13.0963
1516.25	5.06367
1516.51	4.05844
1516.78	10.077
1517.04	8.0734
1517.3	10.0812
1517.57	12.0905
1517.83	9.08832
1518.09	8.09352
1518.36	4.09402
1518.62	12.1244
1518.88	4.10814
1519.15	3.11193
1519.41	12.1482
1519.67	0.117266
1519.94	8.14988
1520.2	13.1699
1520.47	6.14812
1520.73	6.14998
1520.99	3.14699
1521.26	12.1843
1521.52	8.17905
1521.78	8.18473
1522.05	8.18738
1522.31	12.2012
1522.57	4.17508
1522.84	6.18106
1523.1	10.193
1523.36	5.17622
1523.62	4.16676
1523.89	5.15877
1524.15	7.15668
1524.41	7.15239
1524.68	6.148
1524.94	11.1523
1525.2	13.1637
1525.47	9.16349
1525.73	3.15945
1525.99	6.17294
1526.26	13.1962
1526.52	3.19032
1526.78	12.2216
1527.05	9.22116
1527.31	9.2235
1527.57	12.2277
1527.84	7.21724
1528.1	3.20876
1528.36	6.21506
1528.63	5.21178
1528.89	10.2198
1529.15	7.21395
1529.41	12.2232
1529.68	8.21872
