#Acq. time (s)=	60
#Accumulations=	2
#Range (cm-¹)=	1200...2360
#Windows=	3
#Auto scanning=	Off
#Autofocus=	Off
#Macrospot=	Off
#AutoExposure=	Off
#Spike filter=	Multiple accum.
#Delay time (s)=	2
#Binning=	1
#Readout mode=	Signal
#DeNoise=	Off
#ICS correction=	On
#Dark correction=	Off
#Inst. Process=	Off
#Detector Gain=	Best Dynamic
#Detector ADC=	50 kHz HS
#Detector temperature (°C)=	-60.09
#Instrument=	LabRAM HR Evol
#Detector=	SIN-EM FIVIS
#Objective=	x100_VIS_LWD
#Grating=	1800 (450-850nm)
#ND Filter=	100%
#Laser=	532nm_Edge
#Hole=	30.0125
#Temperature=	0
#Range=	Visible
#StageXY=	75x50mm Scan+
#StageZ=	Z motor
#X (µm)=	0
#Y (µm)=	0
#Z (µm)=	-19.4
#Full time(mm:ss)=	6:25
#Project=	21_08_11
#Sample=	BU20
#Site=	
#Title=	BU20-J-FF1-FI03-V_1800 (450-850nm)_532nm_Edge_100%_x100_VIS_LWD_H30um_60sX2
#Remark=	
#Date=	11.08.2021 17:05
#Acquired=	11.08.2021 17:05:31
#Data Range:Extract=	16.12.2021 15:36:30
#Base:Fit=	16.12.2021 15:36:40
#Base:Fit=	16.12.2021 15:57:40
#Base:Sub=	16.12.2021 15:57:41
1201.69	-1.5374
1201.97	-3.64863
1202.25	0.726486
1202.52	-0.29306
1202.8	-2.44502
1203.08	-4.59207
1203.36	-3.51114
1203.63	-1.34425
1203.91	-1.32266
1204.19	-1.28868
1204.47	-1.26781
1204.75	-0.178799
1205.02	-0.167515
1205.3	1.99017
1205.58	-2.29451
1205.86	-0.138676
1206.14	-1.20135
1206.41	0.951832
1206.69	4.17658
1206.97	0.978886
1207.25	0.996418
1207.52	-1.12502
1207.8	4.24595
1208.08	-1.08888
1208.36	-3.21186
1208.63	10.7075
1208.91	-1.03466
1209.19	0.0587692
1209.47	3.28925
1209.74	3.30824
1210.02	-0.954124
1210.3	4.39782
1210.58	6.54564
1210.86	3.3544
1211.13	5.50192
1211.41	3.37919
1211.69	0.191555
1211.96	3.40435
1212.24	0.222519
1212.52	1.30297
1212.8	-2.93911
1213.08	-1.85305
1213.35	0.295074
1213.63	-0.743656
1213.91	0.348042
1214.19	1.439
1214.46	-1.72944
1214.74	2.55351
1215.02	-1.681
1215.29	1.5361
1215.57	-1.63948
1215.85	2.63036
1216.13	-0.55072
1216.41	2.64944
1216.68	-2.65032
1216.96	-1.57166
1217.24	0.56778
1217.51	-3.6624
1217.79	-3.64393
1218.07	-0.441761
1218.35	-1.48218
1218.62	-4.64231
1218.9	-8.86401
1219.18	1.7678
1219.45	-1.39665
1219.73	-2.43375
1220.01	-0.286552
1220.29	-0.263195
1220.56	0.819958
1220.84	1.89868
1221.12	1.91793
1221.4	-0.18655
1221.67	3.00395
1221.95	0.894196
1222.23	4.07703
1222.5	3.02505
1222.78	4.09098
1223.06	1.98455
1223.33	3.05397
1223.61	0.952473
1223.89	5.19186
1224.16	3.09769
1224.44	4.17218
1224.72	7.362
1225	8.4459
1225.27	3.19731
1225.55	7.45027
1225.83	7.47437
1226.1	9.60762
1226.38	5.4025
1226.66	12.8084
1226.93	4.37219
1227.21	8.57938
1227.49	9.62827
1227.76	13.8387
1228.04	15.9248
1228.32	21.1643
1228.6	21.1774
1228.87	21.3124
1229.15	22.516
1229.43	25.6805
1229.7	16.1636
1229.98	31.9638
1230.26	34.0999
1230.53	35.1509
1230.81	39.2427
1231.08	42.4165
1231.36	38.2376
1231.64	39.3112
1231.91	54.0357
1232.19	47.7536
1232.47	58.28
1232.74	62.4964
1233.02	54.113
1233.3	53.0905
1233.57	56.2742
1233.85	64.712
1234.13	60.5461
1234.4	50.0775
1234.68	58.5171
1234.96	57.4976
1235.23	42.8147
1235.51	43.8975
1235.79	39.7163
1236.06	41.8342
1236.34	33.4374
1236.62	30.2958
1236.89	32.3998
1237.17	33.4504
1237.44	31.3507
1237.72	18.7577
1238	25.0569
1238.27	22.9654
1238.55	16.6875
1238.83	19.8494
1239.1	19.8671
1239.38	18.8387
1239.66	17.8122
1239.93	10.498
1240.21	10.5225
1240.48	14.7413
1240.76	16.8638
1241.04	12.6917
1241.31	16.8989
1241.59	15.8677
1241.86	10.6511
1242.14	10.6778
1242.42	5.4652
1242.69	10.7365
1242.97	6.56705
1243.25	-0.747919
1243.52	9.76078
1243.8	11.8812
1244.07	15.0464
1244.35	11.921
1244.63	18.2239
1244.9	10.9
1245.18	19.2886
1245.46	11.9643
1245.73	14.0729
1246.01	18.2795
1246.28	17.2549
1246.56	21.4649
1246.83	20.4373
1247.11	19.4116
1247.39	33.0353
1247.66	24.6683
1247.94	24.6765
1248.21	17.375
1248.49	24.7211
1248.77	26.8405
1249.04	27.9072
1249.32	25.8353
1249.59	22.7209
1249.87	32.1467
1250.15	31.1074
1250.42	33.206
1250.7	36.3507
1250.97	30.0923
1251.25	31.149
1251.52	31.1604
1251.8	35.3484
1252.07	32.2264
1252.35	35.3674
1252.63	29.1151
1252.9	26.0001
1253.18	29.1523
1253.45	32.3137
1253.73	28.1728
1254	24.0318
1254.28	21.9723
1254.56	27.2165
1254.83	24.1101
1255.11	19.9563
1255.38	22.0649
1255.66	15.8235
1255.93	23.1593
1256.21	14.8339
1256.48	16.9485
1256.76	13.8358
1257.03	9.67423
1257.31	14.914
1257.59	18.0653
1257.86	23.304
1258.14	21.2337
1258.41	20.1982
1258.69	24.3918
1258.96	16.0709
1259.24	12.9636
1259.51	6.74437
1259.79	13.0212
1260.07	9.90228
1260.34	15.1263
1260.61	13.0498
1260.89	9.93476
1261.17	19.3434
1261.44	14.1873
1261.72	16.3534
1261.99	19.5778
1262.27	17.4205
1262.54	28.863
1262.82	24.6609
1263.09	34.1326
1263.37	48.8271
1263.64	59.3677
1263.92	67.841
1264.19	66.7474
1264.47	62.5585
1264.74	53.172
1265.02	44.831
1265.29	23.938
1265.57	19.7791
1265.84	16.6691
1266.12	12.5166
1266.39	10.4553
1266.67	10.4862
1266.94	4.24433
1267.22	6.36794
1267.49	7.44772
1267.77	13.766
1268.04	3.33353
1268.32	6.5045
1268.59	8.62749
1268.87	2.36749
1269.14	2.38875
1269.42	7.64106
1269.69	6.60416
1269.97	3.47571
1270.24	8.72314
1270.52	3.50411
1270.79	1.4296
1271.07	3.54
1271.34	8.79395
1271.62	0.450603
1271.89	-1.61331
1272.17	6.79633
1272.44	4.73322
1272.72	1.62006
1272.99	1.64964
1273.27	6.92128
1273.54	0.660093
1273.82	11.1757
1274.09	3.85715
1274.36	0.730545
1274.64	8.09387
1274.92	1.82439
1275.19	6.0469
1275.46	2.9262
1275.74	5.054
1276.01	6.13142
1276.29	1.95942
1276.56	7.23569
1276.84	-1.13795
1277.11	5.19399
1277.39	2.07052
1277.66	5.25142
1277.93	0.021925
1278.21	5.30939
1278.48	8.49179
1278.76	10.6236
1279.03	6.43528
1279.31	12.7647
1279.58	12.7801
1279.86	11.7465
1280.13	17.0291
1280.41	19.1566
1280.68	24.4488
1280.95	28.6976
1281.23	39.2551
1281.5	39.2727
1281.78	58.2465
1282.05	80.3917
1282.33	106.717
1282.6	149.833
1282.87	218.017
1283.15	346.115
1283.42	501.692
1283.7	788.552
1283.97	1090.91
1284.25	1340.86
1284.52	1195.61
1284.79	771.604
1285.07	415.427
1285.34	238.554
1285.62	143.863
1285.89	85.9737
1286.17	72.2788
1286.44	44.9232
1286.71	28.0949
1286.99	26.0021
1287.26	26.0123
1287.53	19.7111
1287.81	19.7302
1288.08	15.5421
1288.36	8.19762
1288.63	14.5384
1288.91	11.4081
1289.18	10.3824
1289.45	9.35741
1289.73	12.5449
1290	8.35311
1290.27	7.31536
1290.55	5.22648
1290.82	5.24572
1291.1	5.26543
1291.37	7.39066
1291.65	2.14427
1291.92	6.37904
1292.19	3.23872
1292.47	2.20214
1292.74	7.48861
1293.01	3.30396
1293.29	2.28376
1293.56	6.53345
1293.84	1.28826
1294.11	12.9071
1294.38	5.544
1294.66	4.51216
1294.93	4.54516
1295.2	0.359837
1295.48	4.62439
1295.75	0.433632
1296.03	1.51464
1296.3	-0.578949
1296.57	1.55247
1296.85	3.68046
1297.12	3.69362
1297.39	2.6497
1297.67	1.60517
1297.94	1.6254
1298.21	-1.52359
1298.49	3.77106
1298.76	-0.437195
1299.04	2.74478
1299.31	3.81824
1299.58	1.73069
1299.86	2.80975
1300.13	-1.39324
1300.4	1.79285
1300.68	1.81086
1300.95	-0.280514
1301.22	-1.31323
1301.5	0.822651
1301.77	8.23884
1302.04	-0.191137
1302.32	2.99694
1302.59	3.01438
1302.86	-1.1942
1303.14	-2.23554
1303.41	-0.106293
1303.68	3.08104
1303.96	-0.0675545
1304.23	-2.16054
1304.5	1.02335
1304.78	-1.07378
1305.05	-2.116
1305.32	2.11802
1305.6	1.07479
1305.87	-1.02182
1306.14	2.15803
1306.42	-3.09663
1306.69	0.088377
1306.96	5.38202
1307.24	0.127031
1307.51	1.20001
1307.78	3.33052
1308.06	0.182999
1308.33	1.25736
1308.6	-0.829088
1308.88	4.46872
1309.15	2.38181
1309.42	-0.761871
1309.69	0.311775
1309.97	-2.8374
1310.24	1.40205
1310.51	3.53242
1310.79	11.9958
1311.06	-2.75962
1311.33	-0.628666
1311.61	-2.7167
1311.88	-1.63832
1312.15	0.49411
1312.43	-2.65503
1312.7	0.52651
1312.97	0.543261
1313.24	1.61543
1313.52	-1.53509
1313.79	2.70497
1314.06	-1.49736
1314.34	1.69041
1314.61	2.76805
1314.88	2.79015
1315.15	-1.41195
1315.43	-2.44648
1315.7	1.7966
1315.97	-2.41152
1316.24	1.82994
1316.52	-3.43305
1316.79	0.809374
1317.06	-1.28161
1317.33	0.851963
1317.61	-0.184174
1317.88	0.891602
1318.15	-0.145998
1318.43	-2.2405
1318.7	0.946363
1318.97	-0.0930386
1319.24	-1.13238
1319.52	-0.0565166
1319.79	-3.20723
1320.06	1.03546
1320.33	-2.11895
1320.61	4.23034
1320.88	3.18408
1321.15	0.0260792
1321.43	3.20478
1321.7	0.0493431
1321.97	0.0631599
1322.24	4.2959
1322.52	1.14609
1322.79	3.26606
1323.06	1.17813
1323.33	-1.96594
1323.61	-0.892885
1323.88	0.178291
1324.15	0.196796
1324.42	2.32176
1324.69	0.234062
1324.97	1.30039
1325.24	-0.801743
1325.51	0.255915
1325.78	3.40963
1326.06	-1.84317
1326.33	-1.82914
1326.6	-1.80599
1326.87	-2.82328
1327.15	2.46967
1327.42	2.49714
1327.69	2.52569
1327.96	-2.71801
1328.23	2.58215
1328.51	-4.78076
1328.78	2.61664
1329.05	-1.582
1329.32	-1.56549
1329.6	-0.494827
1329.87	-1.53535
1330.14	-1.52227
1330.41	-2.56492
1330.68	1.66208
1330.96	-3.59927
1331.23	-0.432352
1331.5	2.7341
1331.77	-0.414364
1332.04	-0.404709
1332.32	-2.49997
1332.59	-0.388103
1332.86	-1.43057
1333.13	-0.370142
1333.4	2.79147
1333.68	0.699924
1333.95	1.76011
1334.22	-4.52829
1334.49	0.731857
1334.76	-0.305542
1335.04	-1.34253
1335.31	1.81703
1335.58	-1.31685
1335.85	2.89088
1336.12	-1.28997
1336.4	6.06252
1336.67	0.835104
1336.94	2.94609
1337.21	-1.23213
1337.48	6.11472
1337.75	4.02809
1338.03	-7.48116
1338.3	3.00543
1338.57	3.01848
1338.84	3.03419
1339.11	3.05165
1339.38	-0.0713787
1339.66	-2.14815
1339.93	2.05822
1340.2	4.17062
1340.47	-2.09653
1340.74	-4.17529
1341.01	-5.20714
1341.29	-2.0514
1341.56	-0.991371
1341.83	-0.979721
1342.1	-5.15497
1342.37	-0.959181
1342.64	-5.13061
1342.92	0.113749
1343.19	3.26677
1343.46	-0.90037
1343.73	-1.92937
1344	-0.866852
1344.27	-0.852095
1344.54	0.206308
1344.82	-3.9642
1345.09	-3.9541
1345.36	5.45994
1345.63	3.3777
1345.9	-2.8833
1346.17	-2.87508
1346.44	-1.82202
1346.72	2.35912
1346.99	4.45303
1347.26	-2.83415
1347.53	1.34851
1347.8	1.36229
1348.07	0.334387
1348.34	0.347118
1348.61	0.358759
1348.89	0.370056
1349.16	-0.659853
1349.43	-3.7719
1349.7	-1.67732
1349.97	1.45731
1350.24	5.62997
1350.51	-0.604023
1350.79	2.52837
1351.06	2.53785
1351.33	-0.568686
1351.6	-1.5932
1351.87	-1.57503
1352.14	1.56595
1352.41	-3.61226
1352.68	-0.471594
1352.95	1.64509
1353.23	4.81651
1353.5	0.645725
1353.77	2.70485
1354.04	2.68794
1354.31	0.625906
1354.58	3.76276
1354.85	1.69261
1355.12	-0.37645
1355.39	0.684631
1355.66	6.94113
1355.94	0.715927
1356.21	1.76786
1356.48	3.85855
1356.75	1.79463
1357.02	3.88391
1357.29	3.89533
1357.56	1.83009
1357.83	4.9547
1358.1	2.88987
1358.37	-1.24967
1358.64	0.835785
1358.92	3.95906
1359.19	3.97104
1359.46	-3.27705
1359.73	0.877888
1360	0.886471
1360.27	4.00446
1360.54	4.01728
1360.81	5.06792
1361.08	3.01104
1361.35	4.06063
1361.62	8.21587
1361.89	7.19197
1362.16	0.991817
1362.43	3.07668
1362.7	2.05788
1362.98	2.07725
1363.25	0.0250206
1363.52	6.25837
1363.79	4.2028
1364.06	6.28792
1364.33	2.15743
1364.6	5.27511
1364.87	8.39007
1365.14	10.4679
1365.41	8.40549
1365.68	8.41349
1365.95	6.35239
1366.22	3.25688
1366.49	4.29672
1366.76	5.33973
1367.03	6.38541
1367.3	8.47005
1367.57	6.42118
1367.85	8.50557
1368.12	7.48892
1368.38	6.47198
1368.66	9.59118
1368.93	24.0845
1369.2	45.8078
1369.47	54.0848
1369.74	35.4851
1370.01	13.7845
1370.28	11.7269
1370.55	5.53734
1370.82	3.47898
1371.09	9.68011
1371.36	6.58593
1371.63	8.65261
1371.9	4.53064
1372.17	3.50657
1372.44	1.45459
1372.71	9.71169
1372.98	9.72231
1373.25	7.67259
1373.52	2.53266
1373.79	4.6062
1374.06	8.74016
1374.33	9.78272
1374.6	8.76324
1374.87	8.77832
1375.14	10.8573
1375.41	5.72083
1375.68	10.8887
1375.95	10.896
1376.22	11.9322
1376.49	5.75903
1376.76	6.78943
1377.03	10.9221
1377.3	10.9445
1377.57	9.94229
1377.84	12.0327
1378.11	8.97613
1378.38	13.122
1378.65	10.0432
1378.92	14.1771
1379.19	15.2172
1379.46	12.1331
1379.73	15.2265
1380	15.2073
1380.27	17.2623
1380.54	17.2554
1380.81	9.05147
1381.08	17.2861
1381.35	21.3938
1381.62	18.3033
1381.89	22.4074
1382.16	19.326
1382.43	16.2443
1382.7	18.3
1382.97	30.6077
1383.24	34.7145
1383.51	26.5163
1383.78	35.7593
1384.05	42.9544
1384.32	49.1331
1384.59	54.2924
1384.86	74.863
1385.13	83.1139
1385.39	104.716
1385.66	127.333
1385.93	172.571
1386.2	233.208
1386.47	407.845
1386.74	692.073
1387.01	1310.65
1387.28	2244.28
1387.55	2843.87
1387.82	2162.43
1388.09	1055.39
1388.36	476.116
1388.63	258.897
1388.9	176.773
1389.17	112.131
1389.44	88.4976
1389.71	66.8898
1389.98	55.567
1390.25	50.467
1390.51	31.9953
1390.78	33.0275
1391.05	29.9641
1391.32	30.9913
1391.59	22.7966
1391.86	23.8238
1392.13	18.7099
1392.4	21.7892
1392.67	22.8214
1392.94	17.7128
1393.21	20.7932
1393.48	20.8034
1393.75	20.814
1394.02	14.6856
1394.28	17.7672
1394.55	13.6904
1394.82	16.781
1395.09	15.776
1395.36	14.7686
1395.63	17.8525
1395.9	13.7688
1396.17	13.7784
1396.44	10.7174
1396.71	11.7485
1396.98	11.7555
1397.25	14.8338
1397.51	12.8007
1397.78	11.7932
1398.05	10.7875
1398.32	14.896
1398.59	11.8422
1398.86	13.9072
1399.13	12.9017
1399.4	12.9186
1399.66	4.74429
1399.93	18.0679
1400.2	12.9713
1400.47	12.9898
1400.74	15.0511
1401.01	6.87488
1401.28	6.88872
1401.55	16.1297
1401.82	14.1132
1402.09	6.96932
1402.35	13.1529
1402.62	10.0989
1402.89	14.2247
1403.16	6.02635
1403.43	6.03511
1403.7	10.1373
1403.97	9.12593
1404.24	18.3712
1404.51	13.2508
1404.77	15.3094
1405.04	13.2648
1405.31	13.2717
1405.58	21.4801
1405.85	15.3383
1406.12	21.4975
1406.39	22.537
1406.65	21.528
1406.92	29.7461
1407.19	34.8886
1407.46	46.183
1407.73	51.3268
1408	64.6741
1408.27	94.432
1408.53	120.095
1408.8	147.813
1409.07	150.918
1409.34	110.935
1409.61	82.23
1409.88	58.6342
1410.15	43.2452
1410.41	26.8359
1410.68	24.7873
1410.95	22.7427
1411.22	14.5531
1411.49	14.5635
1411.76	14.5805
1412.02	9.47834
1412.29	11.5562
1412.56	7.50435
1412.83	9.59758
1413.1	12.6758
1413.36	11.6059
1413.63	4.44463
1413.9	8.57866
1414.17	5.53019
1414.44	8.62009
1414.71	10.6876
1414.97	5.56701
1415.24	7.63359
1415.51	7.64858
1415.78	9.71769
1416.05	6.65243
1416.32	5.64088
1416.58	9.76556
1416.85	7.72727
1417.12	9.79816
1417.39	9.81296
1417.66	4.68834
1417.92	6.75689
1418.19	11.9098
1418.46	2.67311
1418.73	5.76993
1419	9.89071
1419.26	7.84278
1419.53	6.82203
1419.8	6.82936
1420.07	7.86318
1420.34	7.86929
1420.61	6.84962
1420.87	5.83234
1421.14	7.89844
1421.41	4.83709
1421.68	6.91333
1421.94	7.96107
1422.21	5.9328
1422.48	6.99407
1422.75	6.00453
1423.02	8.04174
1423.28	1.80437
1423.55	5.93626
1423.82	6.94778
1424.09	7.97389
1424.36	6.97705
1424.62	6.99782
1424.89	8.05537
1425.16	8.05156
1425.43	6.02736
1425.69	8.0892
1425.96	11.1745
1426.23	5.02567
1426.5	7.08129
1426.77	10.1599
1427.03	7.0871
1427.3	5.04028
1427.57	6.07169
1427.84	6.08158
1428.1	8.14146
1428.37	2.0114
1428.64	9.19353
1428.91	1.01565
1429.17	6.15246
1429.44	5.14537
1429.71	8.23837
1429.98	6.20721
1430.24	11.3528
1430.51	3.17253
1430.78	5.24587
1431.05	3.21036
1431.31	2.19685
1431.58	7.33662
1431.85	2.21186
1432.12	4.2714
1432.38	8.37937
1432.65	4.2795
1432.92	2.23153
1433.19	4.28279
1433.45	6.33589
1433.72	4.29633
1433.99	7.38906
1434.26	7.41015
1434.52	4.34906
1434.79	4.36123
1435.06	3.3478
1435.32	4.3832
1435.59	7.46736
1435.86	3.37892
1436.13	1.33955
1436.4	2.37353
1436.66	5.45605
1436.93	2.39383
1437.2	2.40351
1437.46	4.46175
1437.73	4.47412
1438	2.44059
1438.26	11.6743
1438.53	4.51605
1438.8	1.45534
1439.07	1.46984
1439.33	3.53577
1439.6	4.57905
1439.87	3.56911
1440.13	3.58235
1440.4	1.54353
1440.67	6.68364
1440.94	4.64286
1441.2	4.65058
1441.47	5.68462
1441.74	5.70012
1442	2.63662
1442.27	1.62658
1442.54	2.66194
1442.8	4.72033
1443.07	1.65223
1443.34	3.71151
1443.61	3.72162
1443.87	0.65835
1444.14	-0.350283
1444.41	3.76845
1444.67	6.86587
1444.94	0.720402
1445.21	3.80744
1445.47	3.81662
1445.74	2.80009
1446.01	0.758236
1446.27	6.9214
1446.54	0.777458
1446.81	-1.26422
1447.07	4.89637
1447.34	1.82922
1447.61	3.88985
1447.87	2.87923
1448.14	2.89596
1448.41	4.96035
1448.68	1.89447
1448.94	4.98073
1449.21	1.91232
1449.48	3.97058
1449.74	5.00251
1450.01	1.93612
1450.27	2.97041
1450.54	1.95475
1450.81	-1.11057
1451.07	0.947981
1451.34	5.05539
1451.61	1.99062
1451.87	0.975906
1452.14	-1.06203
1452.41	2.02317
1452.67	2.03655
1452.94	4.09949
1453.21	4.11112
1453.47	4.12034
1453.74	5.15428
1454.01	3.11563
1454.27	0.0524349
1454.54	2.11239
1454.81	4.17088
1455.07	6.23036
1455.34	0.0970554
1455.6	5.23481
1455.87	0.121174
1456.14	2.18044
1456.4	-0.886608
1456.67	3.21889
1456.94	1.17885
1457.2	3.23701
1457.47	0.17342
1457.74	2.23294
1458	3.26832
1458.27	2.2558
1458.53	-0.805973
1458.8	1.25432
1459.07	-1.80812
1459.33	2.30026
1459.6	0.260441
1459.86	1.29406
1460.13	2.32732
1460.4	-0.737152
1460.66	2.34335
1460.93	-0.72098
1461.2	-1.73691
1461.46	1.34178
1461.73	3.39562
1461.99	5.44824
1462.26	2.38403
1462.53	0.343695
1462.79	3.41741
1463.06	3.42267
1463.32	5.47564
1463.59	1.40158
1463.86	0.399136
1464.12	2.46358
1464.39	1.45906
1464.65	3.51376
1464.92	1.43291
1465.18	2.4449
1465.45	1.42846
1465.72	2.46702
1465.98	1.45691
1466.25	2.47873
1466.52	3.50317
1466.78	1.47639
1467.05	3.5258
1467.31	-0.546137
1467.58	2.52329
1467.84	1.51302
1468.11	1.52281
1468.38	1.532
1468.64	1.54023
1468.91	1.54797
1469.17	1.5546
1469.44	1.55977
1469.71	1.56568
1469.97	-1.48432
1470.24	0.561522
1470.5	1.5887
1470.77	-2.47832
1471.03	4.6581
1471.3	-0.42738
1471.56	1.6177
1471.83	3.66338
1472.1	2.65451
1472.36	-2.42716
1472.63	0.636246
1472.89	0.643627
1473.16	2.68622
1473.42	2.69347
1473.69	0.666248
1473.95	-2.37709
1474.22	0.687103
1474.48	2.73432
1474.75	-0.308874
1475.02	2.75412
1475.28	3.78001
1475.55	1.75176
1475.81	1.7593
1476.08	-1.28483
1476.34	1.77434
1476.61	0.763489
1476.88	-1.26274
1477.14	-0.2367
1477.41	2.82342
1477.67	2.83124
1477.94	1.82033
1478.2	0.810263
1478.47	1.83348
1478.73	1.83979
1479	-1.20238
1479.26	3.88265
1479.53	-0.174892
1479.79	-0.171312
1480.06	-0.16732
1480.32	2.8826
1480.59	1.87516
1480.85	0.86713
1481.12	2.90656
1481.38	0.88998
1481.65	-0.111797
1481.91	0.916605
1482.18	1.94469
1482.44	1.95485
1482.71	2.98179
1482.97	-2.08425
1483.24	1.98742
1483.51	3.01187
1483.77	0.983963
1484.04	3.01245
1484.3	1.98731
1484.57	6.01879
1484.83	3.98962
1485.1	0.948097
1485.36	-2.04431
1485.62	1.01529
1485.89	1.03308
1486.15	6.0893
1486.42	3.06604
1486.69	1.05367
1486.95	3.0848
1487.22	-0.962795
1487.48	2.08219
1487.75	4.11354
1488.01	2.09334
1488.28	-0.938797
1488.54	0.0789318
1488.8	3.12148
1489.07	2.11708
1489.33	1.11312
1489.6	0.110432
1489.86	5.17793
1490.13	1.13852
1490.39	1.14403
1490.66	2.16037
1490.92	1.15621
1491.19	3.18638
1491.45	2.18426
1491.72	0.172379
1491.98	4.22519
1492.25	0.189278
1492.51	2.21952
1492.78	4.25068
1493.04	-0.796179
1493.3	0.222935
1493.57	2.25374
1493.83	1.25311
1494.1	1.26421
1494.36	0.261984
1494.63	0.268572
1494.89	4.31485
1495.16	0.274752
1495.42	6.33745
1495.69	0.283455
1495.95	-0.719759
1496.22	4.33451
1496.48	3.33048
1496.74	-0.697979
1497.01	3.34821
1497.27	2.34657
1497.54	-0.67268
1497.8	1.35476
1498.07	5.40088
1498.33	0.364294
1498.59	2.39252
1498.86	2.40264
1499.12	2.41331
1499.39	3.43369
1499.65	4.45305
1499.92	0.423555
1500.18	-1.58741
1500.45	3.46872
1500.71	5.49486
1500.97	-0.557068
1501.24	0.459654
1501.5	3.49533
1501.77	4.51248
1502.03	2.50165
1502.29	2.50622
1502.56	3.51882
1502.82	-0.508377
1503.09	2.52151
1503.35	-1.50368
1503.62	2.54032
1503.88	3.55853
1504.14	0.542229
1504.41	0.550291
1504.67	0.557161
1504.94	3.5878
1505.2	2.5836
1505.47	2.58343
1505.73	1.58289
1505.99	4.61326
1506.26	3.61432
1506.52	1.61157
1506.78	1.62074
1507.05	1.63035
1507.31	0.631338
1507.58	1.64639
1507.84	0.645893
1508.1	8.71535
1508.37	2.67918
1508.63	3.69579
1508.9	0.681118
1509.16	3.71216
1509.42	0.699135
1509.69	3.73388
1509.95	-0.292501
1510.22	-2.3022
1510.48	3.74619
1510.74	1.73503
1511.01	1.73631
1511.27	2.74076
1511.53	2.73818
1511.8	1.73162
1512.06	3.74015
1512.33	2.73842
1512.59	-1.27456
1512.85	-1.26953
1513.12	-1.26314
1513.38	1.75928
1513.64	-0.232651
1513.91	1.78759
1514.17	1.79395
1514.44	2.80269
1514.7	0.797159
1514.96	1.80479
1515.23	3.81412
1515.49	1.80959
1515.75	1.81305
1516.02	1.81925
1516.28	1.82594
1516.54	3.83803
1516.81	0.837599
1517.07	-0.156654
1517.33	-0.147501
1517.6	1.86929
1517.86	3.88494
1518.13	0.885445
1518.39	0.894743
1518.65	2.91072
1518.92	0.913967
1519.18	0.923122
1519.44	0.931089
1519.71	1.94094
1519.97	2.95072
1520.23	3.96264
1520.5	0.962828
1520.76	-1.03411
