#Acq. time (s)=	20
#Accumulations=	3
#Range (cm-¹)=	100...4000
#Windows=	1
#Auto scanning=	Off
#Autofocus=	Off
#Macrospot=	Off
#AutoExposure=	Off
#Spike filter=	Multiple accum.
#Delay time (s)=	0
#Binning=	1
#Readout mode=	Signal
#DeNoise=	Lite
#ICS correction=	Off
#Dark correction=	Off
#Inst. Process=	Off
#Detector temperature (°C)=	-60.09
#Instrument=	LabRAM HR Evol
#Detector=	SIN-EM FIVIS
#Objective=	x50_VIS_LWD
#Grating=	150 (500nm)
#ND Filter=	100%
#Laser=	633nm_Edge
#Hole=	30.0125
#Temperature=	0
#Range=	Visible
#StageXY=	75x50mm Scan+
#StageZ=	Z motor
#X (µm)=	7406.8
#Y (µm)=	4383.9
#Z (µm)=	-31.3
#Full time(mm:ss)=	1:02
#Project=	Buranga
#Sample=	BU18FA20_C
#Site=	C_Bertoss1
#Title=	20-C_brt1_FI05
#Remark=	
#Date=	30.07.2019 14:37
#Acquired=	30.07.2019 14:37:08
#Data Range:Extract=	16.12.2021 15:36:30
#Base:Fit=	16.12.2021 15:36:40
#Base:Edit=	16.12.2021 15:37:58
#Base:Edit=	16.12.2021 15:38:00
#Base:Edit=	16.12.2021 15:38:02
#Base:Edit=	16.12.2021 15:38:03
#Base:Edit=	16.12.2021 15:38:04
#Base:Sub=	16.12.2021 15:38:06
100.38	496.86
103.641	428.579
106.898	366.614
110.156	330.869
113.411	291.631
116.666	255.441
119.918	220.596
123.17	190.173
126.419	161.982
129.669	140.743
132.916	120.632
136.163	104.436
139.407	96.4903
142.651	88.8461
145.892	79.3561
149.134	70.1672
152.372	61.9816
155.611	54.8169
158.847	48.8712
162.083	45.3449
165.316	43.175
168.548	40.0917
171.781	41.8152
175.01	39.0285
178.239	26.7704
181.466	17.8682
184.693	12.3254
187.917	8.47741
191.139	6.04498
194.362	4.12132
197.582	2.56296
200.802	1.05067
204.02	0.0296478
207.236	-0.743256
210.452	-1.31073
213.665	-1.36462
216.877	-1.98156
220.089	-2.42368
223.299	-1.33173
226.508	-0.0733643
229.715	1.36888
232.92	9.84705
236.126	26.8681
239.329	52.3855
242.53	91.7975
245.732	81.7364
248.931	57.2183
252.128	42.0775
255.326	31.793
258.521	25.5855
261.714	21.2945
264.906	19.5654
268.099	20.4117
271.288	23.2627
274.477	27.8334
277.665	37.8598
280.851	49.5509
284.035	64.1331
287.218	82.022
290.402	99.1705
293.582	102.098
296.761	82.8697
299.939	59.0408
303.117	39.9272
306.293	25.1642
309.466	15.4551
312.639	11.4552
315.811	10.8875
318.982	18.7379
322.151	31.5395
325.318	54.1029
328.484	87.0996
331.651	130.169
334.814	136.211
337.977	111.4
341.138	83.0601
344.297	56.3883
347.456	39.3082
350.614	23.6988
353.77	17.922
356.925	15.1455
360.078	18.6805
363.23	24.7564
366.381	32.8704
369.53	36.4871
372.68	37.8625
375.827	35.5684
378.972	29.1914
382.116	21.4457
385.259	12.4049
388.401	5.99615
391.541	2.1207
394.681	0.68763
397.818	0.99102
400.956	2.72133
404.092	5.05724
407.226	7.82539
410.359	10.8616
413.49	12.6477
416.62	13.2682
419.749	16.0218
422.877	20.5578
426.003	26.5991
429.128	36.9585
432.252	49.8004
435.375	60.7599
438.496	71.4509
441.616	78.8804
444.735	83.3866
447.852	83.227
450.969	80.748
454.084	77.3333
457.197	73.1162
460.31	68.4917
463.421	63.3499
466.531	57.3602
469.64	50.5663
472.747	43.5049
475.853	35.5769
478.958	26.5185
482.062	20.0902
485.164	15.809
488.265	12.7315
491.365	11.6618
494.464	12.3274
497.561	13.2371
500.657	15.2938
503.752	19.2995
506.844	22.3778
509.937	25.2829
513.028	26.9767
516.117	27.8578
519.206	27.6658
522.293	26.9321
525.38	24.6912
528.464	23.1158
531.548	21.7738
534.63	21.4057
537.71	20.7501
540.79	20.0834
543.869	19.3518
546.946	18.9329
550.022	19.376
553.097	18.6589
556.169	17.7473
559.242	16.8065
562.313	15.6762
565.383	14.459
568.452	13.4319
571.519	13.2446
574.584	12.8526
577.649	13.2513
580.713	14.3212
583.775	15.6522
586.837	17.7399
589.895	22.9212
592.954	30.9788
596.012	36.588
599.068	56.3763
602.122	75.9988
605.176	94.3104
608.229	99.4083
611.28	92.6527
614.329	78.9433
617.378	70.4781
620.426	63.6966
623.473	62.5537
626.517	63.9193
629.561	67.3852
632.604	69.0952
635.644	70.1597
638.684	70.5854
641.724	68.4377
644.76	65.7131
647.797	60.3525
650.833	57.1322
653.867	59.5278
656.899	64.6242
659.931	69.483
662.96	73.2343
665.99	77.0862
669.018	71.4677
672.044	59.222
675.07	46.9598
678.095	36.3401
681.117	27.6009
684.139	22.4111
687.16	18.7143
690.179	15.5046
693.197	12.9824
696.213	11.1321
699.23	9.74841
702.245	8.21988
705.257	6.24431
708.27	3.84267
711.28	3.4155
714.29	2.61352
717.298	1.22104
720.306	0.521339
723.312	0.553223
726.316	1.1957
729.321	2.77274
732.322	3.30813
735.324	3.89611
738.323	2.72154
741.323	1.24621
744.32	0.0360489
747.317	-0.439362
750.311	-0.969086
753.306	-1.03656
756.298	-0.650734
759.291	0.270393
762.28	1.67035
765.27	3.81299
768.258	5.27694
771.245	5.72785
774.23	4.58527
777.215	2.86072
780.198	0.164093
783.179	-0.360939
786.161	-0.151138
789.14	0.772728
792.119	2.11349
795.096	3.33675
798.073	4.5422
801.047	5.43993
804.021	6.16097
806.994	6.70779
809.965	6.93975
812.936	6.97414
815.904	5.75362
818.871	4.01075
821.839	2.44369
824.804	1.20927
827.769	0.706711
830.732	0.716545
833.693	0.739182
836.655	2.09323
839.614	4.13885
842.572	6.40954
845.53	8.81274
848.485	10.675
851.44	11.9858
854.394	10.8056
857.346	8.84354
860.297	6.90912
863.248	4.9157
866.197	4.48765
869.144	4.77929
872.091	5.51373
875.037	6.68543
877.981	7.93179
880.924	9.02544
883.867	9.91223
886.807	10.6348
889.746	11.0552
892.685	11.2196
895.623	11.1068
898.559	11.2672
901.493	11.528
904.427	11.8513
907.359	11.4841
910.292	14.577
913.222	11.92
916.151	8.39613
919.078	5.63729
922.006	3.67419
924.932	3.68806
927.856	6.17504
930.779	8.76998
933.701	11.4846
936.622	15.1646
939.543	19.6704
942.461	24.7672
945.379	30.3789
948.295	36.5651
951.21	43.1824
954.124	48.3668
957.037	58.1377
959.95	64.8473
962.861	74.032
965.77	75.9852
968.678	75.6449
971.585	78.0927
974.491	85.7593
977.396	98.2785
980.3	117.694
983.202	142.238
986.104	174.625
989.005	205.906
991.904	267.381
994.802	307.87
997.699	293.594
1000.6	257.053
1003.49	225.843
1006.38	201.496
1009.28	180.06
1012.17	167.266
1015.06	156.216
1017.95	158.733
1020.83	166.448
1023.72	181.78
1026.61	200.757
1029.49	212.545
1032.37	209.353
1035.26	188.196
1038.14	158.757
1041.02	129.344
1043.9	104.205
1046.77	84.5123
1049.65	72.5354
1052.53	63.9166
1055.4	56.652
1058.27	50.9384
1061.15	46.17
1064.02	42.3393
1066.88	39.2578
1069.75	36.5578
1072.62	36.0505
1075.49	38.8802
1078.35	43.5562
1081.22	48.3761
1084.08	53.3021
1086.94	58.1781
1089.8	63.0061
1092.66	67.0283
1095.52	72.6494
1098.38	78.7282
1101.23	83.502
1104.09	88.9333
1106.94	87.982
1109.8	75.7955
1112.65	60.3747
1115.5	49.2504
1118.35	39.9997
1121.2	30.4046
1124.05	26.0195
1126.89	23.417
1129.74	22.5489
1132.58	23.1285
1135.42	24.8115
1138.27	27.6893
1141.11	31.0472
1143.95	35.1635
1146.78	39.8636
1149.62	44.783
1152.46	50.1064
1155.29	51.962
1158.13	58.9051
1160.96	62.5464
1163.79	53.4871
1166.62	41.0738
1169.45	30.1898
1172.28	23.3482
1175.11	16.8301
1177.93	13.8178
1180.76	13.1434
1183.59	11.2292
1186.41	9.44221
1189.23	7.7054
1192.05	6.06415
1194.87	4.70512
1197.69	3.66304
1200.51	3.42113
1203.32	2.93043
1206.14	1.83221
1208.95	0.653778
1211.77	-0.206619
1214.58	-0.234268
1217.39	0.00832367
1220.2	0.25383
1223.01	0.646759
1225.82	1.12837
1228.62	1.52514
1231.43	1.92829
1234.23	1.78497
1237.04	1.45416
1239.84	1.23466
1242.64	2.32104
1245.44	3.97432
1248.24	6.28778
1251.04	8.71494
1253.83	11.8839
1256.63	14.8756
1259.42	18.4444
1262.22	21.3058
1265.01	28.011
1267.8	22.4226
1270.59	18.4969
1273.38	11.3111
1276.17	20.1839
1278.96	29.0704
1281.74	149.645
1284.53	440.717
1287.31	237.79
1290.1	51.5547
1292.88	31.8703
1295.66	20.433
1298.44	14.7309
1301.22	12.0705
1303.99	10.7998
1306.77	10.4624
1309.55	9.83391
1312.32	10.2454
1315.09	9.63339
1317.87	9.04204
1320.64	8.37001
1323.41	7.73767
1326.18	7.59709
1328.94	7.59463
1331.71	7.6708
1334.48	7.69603
1337.24	7.59098
1340	7.57394
1342.77	7.4697
1345.53	7.52831
1348.29	6.34624
1351.05	5.59318
1353.81	5.92847
1356.56	8.94251
1359.32	8.85242
1362.08	7.07689
1364.83	9.84602
1367.58	16.2145
1370.33	21.5467
1373.09	18.6462
1375.84	17.9146
1378.58	19.0232
1381.33	31.1605
1384.08	94.0396
1386.82	485.417
1389.57	658.488
1392.31	166.559
1395.06	48.2581
1397.8	20.0286
1400.54	16.7037
1403.28	19.3197
1406.02	35.7406
1408.75	44.7219
1411.49	36.6586
1414.22	24.4217
1416.96	14.2214
1419.69	9.38284
1422.42	6.14945
1425.15	3.99037
1427.88	2.49482
1430.61	1.48611
1433.34	1.08109
1436.07	1.13463
1438.79	2.51114
1441.52	3.65478
1444.24	4.56622
1446.96	5.29018
1449.69	5.06068
1452.41	3.81738
1455.13	2.21542
1457.84	0.382957
1460.56	-1.1636
1463.28	-1.33903
1465.99	-0.706154
1468.71	0.521133
1471.42	1.56627
1474.13	2.45118
1476.84	3.11697
1479.55	3.62006
1482.26	3.91859
1484.97	3.67829
1487.68	2.91423
1490.39	2.24168
1493.09	1.92836
1495.79	2.51619
1498.5	3.17319
1501.2	2.22536
1503.9	1.68642
1506.6	1.60253
1509.3	1.55401
1512	1.44993
1514.69	1.2346
1517.39	0.916962
1520.08	0.634445
1522.78	-0.0898514
1525.47	-1.4978
1528.16	-4.65985
1530.85	-5.39673
1533.54	-4.48222
1536.23	-2.77071
1538.92	-0.629936
1541.61	0.932945
1544.29	0.0131073
1546.98	-0.711517
1549.66	-1.13046
1552.34	-1.31998
1555.02	-1.37653
1557.7	-1.70924
1560.38	-1.52381
1563.06	-1.94105
1565.74	-2.07062
1568.42	-1.60462
1571.09	-0.967575
1573.77	0.334061
1576.44	1.69804
1579.11	3.04937
1581.78	4.01839
1584.45	4.4305
1587.12	4.06091
1589.79	2.91
1592.46	1.20679
1595.12	-0.556793
1597.79	-2.05055
1600.45	-1.90067
1603.12	-1.0052
1605.78	0.571747
1608.44	2.42268
1611.1	4.29231
1613.76	5.65231
1616.42	5.44624
1619.08	4.43398
1621.73	4.31273
1624.39	4.32298
1627.04	3.91383
1629.7	3.08773
1632.35	2.23577
1635	1.53179
1637.65	1.66804
1640.3	2.06905
1642.95	2.09258
1645.59	2.03542
1648.24	1.52164
1650.88	1.04209
1653.53	-0.61496
1656.17	-2.11146
1658.82	-3.36638
1661.46	-4.5094
1664.1	-4.82435
1666.74	-3.31698
1669.37	-0.784233
1672.01	1.12682
1674.65	2.5235
1677.28	3.19849
1679.92	2.9738
1682.55	1.97549
1685.18	0.388084
1687.82	0.880806
1690.44	2.85019
1693.07	3.24765
1695.7	2.75574
1698.33	2.3727
1700.96	2.08527
1703.58	1.90912
1706.21	1.74873
1708.83	1.63334
1711.45	1.49464
1714.07	1.03889
1716.69	-0.9785
1719.31	-1.61781
1721.93	-0.313736
1724.55	2.46668
1727.17	5.14719
1729.78	7.97214
1732.4	10.1993
1735.01	9.51091
1737.62	-8.26089
1740.23	5.31764
1742.85	4.1749
1745.46	2.52412
1748.07	2.00486
1750.67	2.27256
1753.28	2.54459
1755.89	2.76006
1758.49	2.74812
1761.09	2.1408
1763.7	1.72535
1766.3	1.65394
1768.9	1.72892
1771.5	1.97051
1774.1	2.85477
1776.7	3.7846
1779.29	4.81042
1781.89	5.26579
1784.49	4.13406
1787.08	3.12618
1789.67	3.19206
1792.27	2.91554
1794.86	2.6641
1797.45	2.48346
1800.04	2.3102
1802.62	2.32391
1805.21	2.54633
1807.8	2.86796
1810.38	1.84337
1812.97	1.33284
1815.55	2.68147
1818.14	3.37527
1820.72	1.51445
1823.3	1.69965
1825.88	1.88731
1828.46	1.96824
1831.03	2.8251
1833.61	3.46117
1836.19	3.67756
1838.76	3.57523
1841.34	3.16624
1843.91	2.40063
1846.48	1.62257
1849.05	-0.562271
1851.62	-0.453453
1854.19	1.1349
1856.76	1.69489
1859.33	2.22303
1861.89	0.836433
1864.46	1.17834
1867.02	2.94933
1869.59	5.33038
1872.15	5.71124
1874.71	2.83944
1877.27	5.33749
1879.83	5.06346
1882.39	4.21359
1884.95	3.04074
1887.51	1.65046
1890.06	-0.0849533
1892.62	-0.881638
1895.17	-0.549934
1897.72	0.327667
1900.27	0.881897
1902.83	1.50516
1905.38	1.86289
1907.93	2.01047
1910.47	1.57688
1913.02	1.5042
1915.57	1.64298
1918.11	2.35695
1920.66	3.19518
1923.2	3.58532
1925.74	3.90487
1928.29	4.01936
1930.83	4.21171
1933.37	3.9468
1935.91	3.58445
1938.44	2.84705
1940.98	1.50126
1943.52	1.00047
1946.05	1.5519
1948.59	1.86279
1951.12	2.96999
1953.65	2.46416
1956.18	2.34148
1958.72	2.43246
1961.25	2.78251
1963.77	3.40447
1966.3	3.98556
1968.83	4.23039
1971.35	4.32091
1973.88	6.03205
1976.4	5.78262
1978.93	2.47359
1981.45	-0.127182
1983.97	-0.884483
1986.49	1.14696
1989.01	2.1868
1991.53	2.87537
1994.05	3.32305
1996.56	3.54408
1999.08	3.93111
2001.59	3.56702
2004.11	1.66656
2006.62	2.03845
2009.13	2.60549
2011.64	3.14697
2014.15	3.55045
2016.66	3.81526
2019.17	4.1002
2021.68	3.54189
2024.18	3.70341
2026.69	4.02809
2029.19	4.31022
2031.7	3.9216
2034.2	3.02928
2036.7	2.27824
2039.2	1.75179
2041.7	1.50862
2044.2	1.73075
2046.7	2.12732
2049.2	2.69819
2051.7	2.41264
2054.19	2.07266
2056.69	2.8887
2059.18	4.66203
2061.67	7.22228
2064.16	7.23281
2066.65	6.6602
2069.15	4.11059
2071.63	2.25074
2074.12	1.47293
2076.61	1.61031
2079.1	2.54721
2081.58	3.62629
2084.07	4.24882
2086.55	4.86386
2089.03	5.72986
2091.51	6.01454
2094	5.8984
2096.47	4.97393
2098.95	3.94373
2101.43	2.60332
2103.91	1.39928
2106.39	0.779335
2108.86	0.639175
2111.34	1.31297
2113.81	2.05351
2116.28	2.91371
2118.76	3.66244
2121.23	4.18731
2123.7	4.40676
2126.17	4.1828
2128.63	3.53985
2131.1	2.08698
2133.57	1.25005
2136.03	-0.163284
2138.5	0.951912
2140.96	3.93031
2143.43	5.05341
2145.89	5.59536
2148.35	5.91743
2150.81	6.02142
2153.27	2.08917
2155.73	0.265999
2158.18	-0.919998
2160.64	-1.44098
2163.1	-1.21956
2165.55	-0.212189
2168	1.71354
2170.46	4.30332
2172.91	3.94802
2175.36	3.48438
2177.81	3.18752
2180.26	3.00544
2182.71	3.04382
2185.16	3.16527
2187.6	3.49171
2190.05	3.62695
2192.5	3.73727
2194.94	3.76109
2197.38	3.57473
2199.83	3.47621
2202.27	4.0289
2204.71	4.22364
2207.15	4.03961
2209.59	3.66724
2212.02	3.36333
2214.46	3.0163
2216.9	2.58517
2219.33	2.64715
2221.77	2.19482
2224.2	1.16396
2226.64	0.101891
2229.07	1.0332
2231.5	1.93253
2233.93	3.3048
2236.36	3.59201
2238.79	3.60916
2241.21	3.063
2243.64	2.99809
2246.06	1.69983
2248.49	-0.936935
2250.91	-0.714462
2253.34	0.562668
2255.76	1.85056
2258.18	2.81168
2260.6	3.0298
2263.02	2.33962
2265.44	2.04205
2267.86	2.25763
2270.27	2.54889
2272.69	3.5237
2275.11	4.21719
2277.52	4.73313
2279.93	5.28058
2282.35	6.08829
2284.76	7.00706
2287.17	7.15136
2289.58	7.07883
2291.99	6.55393
2294.4	5.89376
2296.8	5.32944
2299.21	4.07388
2301.62	3.20211
2304.02	3.18777
2306.43	3.91878
2308.83	5.02557
2311.23	5.36335
2313.63	5.97304
2316.03	6.82433
2318.43	7.81618
2320.83	8.63512
2323.23	8.69756
2325.63	9.89742
2328.02	10.8382
2330.42	12.1727
2332.81	12.6913
2335.21	12.5046
2337.6	10.5638
2339.99	8.56634
2342.38	6.90337
2344.77	5.55119
2347.16	4.60199
2349.55	1.91791
2351.94	0.17926
2354.32	-0.675552
2356.71	-0.549889
2359.1	1.16776
2361.48	3.07358
2363.86	4.6797
2366.25	6.22015
2368.63	7.37745
2371.01	7.7239
2373.39	7.60284
2375.77	7.029
2378.15	6.20197
2380.52	5.48849
2382.9	4.93491
2385.28	4.1072
2387.65	2.68571
2390.03	1.23659
2392.4	2.15387
2394.77	3.38977
2397.14	4.24886
2399.51	4.27899
2401.88	3.93404
2404.25	3.9024
2406.62	4.06443
2408.99	4.52044
2411.35	5.09635
2413.72	5.36147
2416.08	5.10605
2418.45	4.96162
2420.81	5.88371
2423.17	5.49216
2425.53	5.45518
2427.89	6.15066
2430.25	7.18629
2432.61	6.85493
2434.97	5.05357
2437.33	3.72337
2439.69	2.93843
2442.04	2.45087
2444.4	3.42046
2446.75	5.47875
2449.1	6.68285
2451.45	6.261
2453.81	5.57088
2456.16	4.55569
2458.51	1.82508
2460.85	5.45276
2463.2	5.66391
2465.55	5.31961
2467.9	3.96848
2470.24	2.50118
2472.59	1.25358
2474.93	0.874054
2477.27	2.37567
2479.62	3.51668
2481.96	4.57119
2484.3	4.17278
2486.64	3.8156
2488.98	5.48511
2491.31	7.60394
2493.65	8.71729
2495.99	10.4514
2498.32	11.4342
2500.66	11.4769
2502.99	10.776
2505.32	9.16225
2507.66	7.49887
2509.99	6.30333
2512.32	5.57283
2514.65	5.3332
2516.98	5.40829
2519.31	5.84215
2521.63	5.3065
2523.96	5.2624
2526.28	5.50038
2528.61	6.01352
2530.93	6.42239
2533.26	6.6739
2535.58	6.88958
2537.9	6.74155
2540.22	6.21034
2542.54	5.80325
2544.86	5.72339
2547.18	5.86403
2549.5	6.15199
2551.81	6.38268
2554.13	6.73603
2556.44	5.70916
2558.76	5.19406
2561.07	5.04113
2563.38	5.11469
2565.69	4.39742
2568.01	3.78364
2570.32	3.3866
2572.62	2.69835
2574.93	2.27572
2577.24	2.12143
2579.55	2.29317
2581.85	2.67703
2584.16	3.79557
2586.46	4.79638
2588.77	6.05775
2591.07	7.0064
2593.37	6.92405
2595.67	6.55682
2597.97	6.59731
2600.27	6.9201
2602.57	6.90851
2604.87	4.09209
2607.17	2.7349
2609.46	4.35427
2611.76	6.99659
2614.05	8.31673
2616.35	8.04951
2618.64	6.15839
2620.93	5.06437
2623.22	5.1199
2625.51	5.53471
2627.8	5.34796
2630.09	5.12247
2632.38	5.0863
2634.67	5.45309
2636.96	5.79488
2639.24	6.07383
2641.53	6.80615
2643.81	7.341
2646.09	5.96418
2648.38	4.98087
2650.66	4.56975
2652.94	7.02267
2655.22	7.03774
2657.5	5.8271
2659.78	4.83856
2662.06	4.20815
2664.33	4.21945
2666.61	4.53941
2668.88	4.69642
2671.16	4.38217
2673.43	4.0024
2675.71	3.54076
2677.98	3.28518
2680.25	2.99457
2682.52	3.22968
2684.79	2.89589
2687.06	4.81016
2689.33	3.32959
2691.6	2.19019
2693.86	2.15021
2696.13	2.83759
2698.39	1.9417
2700.66	2.5346
2702.92	3.73979
2705.18	3.52601
2707.45	3.58582
2709.71	3.71996
2711.97	3.94414
2714.23	4.5344
2716.49	5.55949
2718.74	6.24917
2721	7.02321
2723.26	8.4598
2725.51	8.64369
2727.77	7.77578
2730.02	6.30499
2732.28	5.04676
2734.53	4.29137
2736.78	3.80156
2739.03	3.6896
2741.28	3.86497
2743.53	3.86895
2745.78	3.49669
2748.03	1.18748
2750.27	0.15181
2752.52	0.29538
2754.77	1.1836
2757.01	0.142212
2759.26	1.61359
2761.5	3.86871
2763.74	5.97475
2765.98	6.61173
2768.22	5.81923
2770.46	4.43047
2772.7	3.5031
2774.94	2.77313
2777.18	0.854324
2779.42	-0.342926
2781.65	-0.0675812
2783.89	0.932297
2786.12	2.84864
2788.36	4.03955
2790.59	4.62216
2792.82	5.02624
2795.05	4.27511
2797.28	3.53072
2799.51	2.96495
2801.74	2.7411
2803.97	2.72258
2806.2	4.04918
2808.43	4.18531
2810.65	3.75764
2812.88	3.54315
2815.1	4.04668
2817.33	5.4995
2819.55	5.73688
2821.77	2.48553
2823.99	0.680176
2826.21	1.66071
2828.43	4.04201
2830.65	5.08905
2832.87	6.22114
2835.09	6.77963
2837.3	6.80611
2839.52	6.84499
2841.74	6.28939
2843.95	5.44476
2846.17	5.06624
2848.38	5.34206
2850.59	5.43546
2852.8	5.52792
2855.01	5.51857
2857.22	4.82683
2859.43	3.09718
2861.64	1.74756
2863.85	0.73687
2866.06	0.239937
2868.26	0.779602
2870.47	1.99712
2872.67	3.28787
2874.88	4.30307
2877.08	5.10774
2879.28	5.58686
2881.48	5.59725
2883.68	5.26775
2885.89	4.67936
2888.08	3.51733
2890.28	2.61076
2892.48	1.97334
2894.68	1.64339
2896.87	1.33858
2899.07	1.61169
2901.26	2.2131
2903.46	2.57578
2905.65	2.54419
2907.85	2.80334
2910.04	2.40052
2912.23	-0.0244293
2914.42	-1.73557
2916.61	-2.16244
2918.8	-1.68489
2920.98	-0.477692
2923.17	1.38613
2925.36	3.10546
2927.54	4.89299
2929.73	5.37801
2931.91	5.03317
2934.1	4.07357
2936.28	3.50524
2938.46	1.98988
2940.64	0.496346
2942.82	0.0404358
2945	1.84541
2947.18	3.54612
2949.36	5.01504
2951.54	5.49728
2953.72	4.04363
2955.89	3.28075
2958.07	3.57904
2960.24	3.8458
2962.42	4.32944
2964.59	4.46178
2966.76	4.32158
2968.93	3.29453
2971.1	1.55939
2973.27	1.82787
2975.44	0.157806
2977.61	-0.121582
2979.78	0.438438
2981.95	0.175331
2984.11	-0.125275
2986.28	-0.40065
2988.45	-0.517899
2990.61	-0.45491
2992.77	-0.202255
2994.94	0.260101
2997.1	0.838493
2999.26	1.42741
3001.42	1.86104
3003.58	2.13981
3005.74	1.93669
3007.9	1.47778
3010.06	-1.54528
3012.21	-0.899132
3014.37	1.37327
3016.52	2.51335
3018.68	2.52111
3020.83	2.29787
3022.99	2.00617
3025.14	1.00259
3027.29	0.240997
3029.44	0.207047
3031.59	1.19443
3033.74	1.54512
3035.89	1.78097
3038.04	2.17107
3040.19	2.58936
3042.33	2.378
3044.48	2.26984
3046.62	2.32386
3048.77	2.58554
3050.91	3.19503
3053.05	3.88035
3055.2	4.07543
3057.34	2.97269
3059.48	1.62098
3061.62	0.862587
3063.76	0.790207
3065.9	1.20764
3068.03	1.74578
3070.17	1.99947
3072.31	1.56671
3074.44	1.89896
3076.58	2.30515
3078.71	2.69067
3080.85	3.2258
3082.98	3.75896
3085.11	4.19448
3087.24	4.61386
3089.37	4.98102
3091.5	5.75732
3093.63	4.87684
3095.76	3.94756
3097.89	3.72327
3100.02	3.68384
3102.14	4.14923
3104.27	4.63461
3106.39	4.18224
3108.52	4.03893
3110.64	3.44626
3112.76	3.07065
3114.89	3.17327
3117.01	4.29559
3119.13	4.95271
3121.25	4.9781
3123.37	3.72867
3125.49	2.46664
3127.6	1.26003
3129.72	0.495506
3131.84	0.062851
3133.95	0.0940399
3136.07	0.504044
3138.18	1.05633
3140.29	0.852386
3142.41	0.768799
3144.52	0.132698
3146.63	0.340019
3148.74	2.29609
3150.85	3.50942
3152.96	2.96455
3155.07	3.8448
3157.18	4.5061
3159.28	4.97787
3161.39	4.43566
3163.5	3.75721
3165.6	2.63568
3167.71	4.32616
3169.81	5.60632
3171.91	4.53474
3174.01	5.18806
3176.12	3.05814
3178.22	-1.07815
3180.32	3.674
3182.42	5.37878
3184.51	6.32291
3186.61	6.92422
3188.71	6.52916
3190.8	5.28793
3192.9	5.05188
3195	5.92098
3197.09	6.63947
3199.18	7.41293
3201.28	7.80247
3203.37	7.15082
3205.46	4.28593
