#Acq. time (s)=	20
#Accumulations=	3
#Range (cm-¹)=	100...4000
#Windows=	1
#Auto scanning=	Off
#Autofocus=	Off
#Macrospot=	Off
#AutoExposure=	Off
#Spike filter=	Multiple accum.
#Delay time (s)=	0
#Binning=	1
#Readout mode=	Signal
#DeNoise=	Lite
#ICS correction=	Off
#Dark correction=	Off
#Inst. Process=	Off
#Detector temperature (°C)=	-60.09
#Instrument=	LabRAM HR Evol
#Detector=	SIN-EM FIVIS
#Objective=	x50_VIS_LWD
#Grating=	150 (500nm)
#ND Filter=	100%
#Laser=	633nm_Edge
#Hole=	30.0125
#Temperature=	0
#Range=	Visible
#StageXY=	75x50mm Scan+
#StageZ=	Z motor
#X (µm)=	7435.8
#Y (µm)=	4166.6
#Z (µm)=	-29.5
#Full time(mm:ss)=	1:02
#Project=	Buranga
#Sample=	BU18FA20_C
#Site=	C_Bertoss1
#Title=	20-C_brt1_FI07
#Remark=	
#Date=	30.07.2019 14:30
#Acquired=	30.07.2019 14:30:37
#Data Range:Extract=	16.12.2021 15:36:30
#Base:Fit=	16.12.2021 15:36:40
#Base:Edit=	16.12.2021 15:37:31
#Base:Sub=	16.12.2021 15:37:33
100.38	631.889
103.641	524.373
106.898	456.448
110.156	394.037
113.411	343.328
116.666	302.997
119.918	264.267
123.17	237.823
126.419	210.899
129.669	183.669
132.916	156.243
136.163	129.524
139.407	124.139
142.651	114.003
145.892	108.484
149.134	94.9587
152.372	81.6961
155.611	69.0324
158.847	54.5339
162.083	47.2196
165.316	43.6022
168.548	45.4331
171.781	43.0526
175.01	38.5203
178.239	24.5093
181.466	20.3755
184.693	15.579
187.917	11.8262
191.139	8.39612
194.362	7.17317
197.582	6.36496
200.802	2.58194
204.02	1.08296
207.236	2.7966
210.452	5.39011
213.665	3.77184
216.877	1.74831
220.089	-0.442688
223.299	-0.804642
226.508	3.32648
229.715	15.9613
232.92	28.3902
236.126	46.7462
239.329	90.0572
242.53	145.498
245.732	130.164
248.931	95.0313
252.128	66.205
255.326	48.1717
258.521	38.5117
261.714	34.1426
264.906	34.9932
268.099	39.8207
271.288	48.8696
274.477	60.4012
277.665	71.4651
280.851	94.7129
284.035	116.453
287.218	148.9
290.402	167.96
293.582	162.179
296.761	131.244
299.939	97.0627
303.117	67.6696
306.293	42.6347
309.466	29.4451
312.639	21.1664
315.811	21.1548
318.982	27.4093
322.151	44.2633
325.318	70.3796
328.484	134.001
331.651	182.511
334.814	215.75
337.977	178.51
341.138	125.206
344.297	77.4836
347.456	51.8355
350.614	36.819
353.77	28.9023
356.925	30.6096
360.078	44.1223
363.23	56.1425
366.381	66.6674
369.53	72.548
372.68	70.8553
375.827	64.3695
378.972	53.0046
382.116	39.328
385.259	26.5465
388.401	11.6591
391.541	3.81769
394.681	0.051796
397.818	-0.0748978
400.956	3.53636
404.092	5.22874
407.226	8.52076
410.359	9.28715
413.49	11.2396
416.62	14.7296
419.749	18.2198
422.877	22.6796
426.003	28.9114
429.128	41.985
432.252	59.0175
435.375	76.1841
438.496	98.9723
441.616	114.604
444.735	123.747
447.852	122.908
450.969	118.144
454.084	111.738
457.197	105.251
460.31	98.4437
463.421	91.1054
466.531	82.4243
469.64	71.686
472.747	59.3978
475.853	46.0251
478.958	34.0929
482.062	28.4685
485.164	24.5897
488.265	22.0008
491.365	20.1095
494.464	18.9391
497.561	18.2341
500.657	18.1372
503.752	18.632
506.844	20.2672
509.937	22.4405
513.028	25.517
516.117	27.028
519.206	28.3035
522.293	29.4737
525.38	28.5775
528.464	28.3153
531.548	27.9802
534.63	28.4567
537.71	29.1703
540.79	28.2999
543.869	26.2016
546.946	23.127
550.022	20.3804
553.097	17.8521
556.169	16.7122
559.242	16.9696
562.313	17.5989
565.383	20.0031
568.452	22.7058
571.519	23.1208
574.584	22.1058
577.649	19.9463
580.713	18.5559
583.775	17.9182
586.837	20.4647
589.895	25.7122
592.954	30.3365
596.012	45.6818
599.068	68.4564
602.122	101.827
605.176	139.131
608.229	148.169
611.28	137.995
614.329	115.032
617.378	97.4652
620.426	91.4741
623.473	89.0101
626.517	93.0304
629.561	100.17
632.604	102.856
635.644	104.224
638.684	106.514
641.724	102.153
644.76	95.8363
647.797	88.8077
650.833	83.6662
653.867	84.8177
656.899	89.27
659.931	95.8416
662.96	114.619
665.99	113.376
669.018	106.057
672.044	98.3613
675.07	72.9123
678.095	38.8661
681.117	27.5814
684.139	22.4901
687.16	17.0158
690.179	12.8728
693.197	10.6126
696.213	8.81416
699.23	8.48447
702.245	7.0553
705.257	5.50197
708.27	4.04552
711.28	2.45506
714.29	1.73153
717.298	1.51344
720.306	1.56738
723.312	2.21261
726.316	2.82394
729.321	3.28024
732.322	2.80776
735.324	1.92243
738.323	1.4602
741.323	1.14851
744.32	0.981415
747.317	1.07125
750.311	1.31411
753.306	1.79699
756.298	2.67838
759.291	2.7345
762.28	1.74805
765.27	-0.113815
768.258	-0.602692
771.245	-0.236725
774.23	-0.34111
777.215	0.25441
780.198	0.43158
783.179	0.0285416
786.161	-1.46147
789.14	-1.87293
792.119	-1.12115
795.096	1.02188
798.073	0.944489
801.047	1.8353
804.021	1.68115
806.994	1.70134
809.965	1.75005
812.936	1.286
815.904	0.993782
818.871	0.816315
821.839	0.792351
824.804	1.55329
827.769	2.74978
830.732	4.07519
833.693	5.38308
836.655	6.568
839.614	7.48347
842.572	8.14555
845.53	8.78636
848.485	9.3952
851.44	9.77721
854.394	9.70588
857.346	9.08401
860.297	7.92457
863.248	7.14864
866.197	6.72478
869.144	6.44261
872.091	7.00465
875.037	8.28371
877.981	10.8097
880.924	11.9851
883.867	13.233
886.807	13.7083
889.746	13.365
892.685	12.7957
895.623	12.1764
898.559	11.3762
901.493	10.7784
904.427	10.8878
907.359	11.6476
910.292	12.9927
913.222	15.343
916.151	18.3719
919.078	20.8267
922.006	22.2065
924.932	22.6177
927.856	21.9607
930.779	20.8145
933.701	22.9404
936.622	24.7298
939.543	28.0417
942.461	35.5864
945.379	44.9609
948.295	55.4088
951.21	65.9587
954.124	74.3776
957.037	82.0886
959.95	90.0041
962.861	98.0223
965.77	105.48
968.678	113.277
971.585	123.615
974.491	136.803
977.396	158.391
980.3	187.253
983.202	222.314
986.104	271.038
989.005	328.249
991.904	387.728
994.802	443.259
997.699	440.382
1000.6	380.779
1003.49	322.204
1006.38	276.134
1009.28	242.407
1012.17	221.18
1015.06	212.559
1017.95	215.684
1020.83	230.167
1023.72	262.111
1026.61	295.703
1029.49	323.056
1032.37	314.982
1035.26	261.699
1038.14	216.775
1041.02	179.463
1043.9	149.62
1046.77	126.509
1049.65	110.416
1052.53	98.5666
1055.4	90.041
1058.27	83.1315
1061.15	75.7178
1064.02	69.7291
1066.88	65.3334
1069.75	62.0635
1072.62	59.3235
1075.49	59.6957
1078.35	64.6034
1081.22	72.886
1084.08	83.8948
1086.94	96.484
1089.8	107.921
1092.66	113.603
1095.52	118.086
1098.38	119.125
1101.23	124.478
1104.09	129.501
1106.94	132.886
1109.8	114.086
1112.65	95.2215
1115.5	76.0374
1118.35	61.5656
1121.2	48.2193
1124.05	40.7598
1126.89	36.6369
1129.74	34.8533
1132.58	35.2998
1135.42	36.881
1138.27	39.8112
1141.11	43.6368
1143.95	48.6286
1146.78	54.8212
1149.62	60.7837
1152.46	64.4101
1155.29	72.5026
1158.13	81.105
1160.96	88.8309
1163.79	75.5074
1166.62	61.2588
1169.45	45.5736
1172.28	34.0641
1175.11	26.2736
1177.93	21.5048
1180.76	19.2968
1183.59	18.5235
1186.41	17.7591
1189.23	16.9967
1192.05	16.1408
1194.87	15.4757
1197.69	13.9542
1200.51	12.1803
1203.32	10.492
1206.14	8.43467
1208.95	6.54829
1211.77	4.92701
1214.58	3.94463
1217.39	4.00728
1220.2	5.20181
1223.01	7.28006
1225.82	9.26012
1228.62	10.2687
1231.43	10.4747
1234.23	10.2618
1237.04	8.83464
1239.84	6.80814
1242.64	4.94843
1245.44	3.84099
1248.24	4.1423
1251.04	4.70313
1253.83	11.174
1256.63	17.8387
1259.42	24.1379
1262.22	30.8273
1265.01	39.033
1267.8	38.3588
1270.59	33.3389
1273.38	25.8094
1276.17	32.1745
1278.96	36.6344
1281.74	194.268
1284.53	532.396
1287.31	290.525
1290.1	70.081
1292.88	38.0084
1295.66	28.7611
1298.44	22.0009
1301.22	19.0851
1303.99	16.5309
1306.77	16.6499
1309.55	17.4432
1312.32	18.1567
1315.09	16.8163
1317.87	15.5248
1320.64	14.286
1323.41	13.411
1326.18	12.3527
1328.94	11.1992
1331.71	11.031
1334.48	11.1272
1337.24	11.2007
1340	11.1538
1342.77	10.735
1345.53	10.6866
1348.29	11.6094
1351.05	13.1396
1353.81	14.8973
1356.56	16.6124
1359.32	18.3071
1362.08	20.1942
1364.83	22.6402
1367.58	26.099
1370.33	29.4669
1373.09	29.691
1375.84	30.0978
1378.58	39.0303
1381.33	41.6838
1384.08	110.795
1386.82	558.908
1389.57	845.022
1392.31	191.135
1395.06	53.247
1397.8	17.7444
1400.54	16.6127
1403.28	21.0662
1406.02	31.2334
1408.75	53.5606
1411.49	50.4963
1414.22	31.3283
1416.96	21.3924
1419.69	13.0891
1422.42	11.486
1425.15	11.138
1427.88	11.512
1430.61	10.2718
1433.34	9.08842
1436.07	7.70771
1438.79	6.43404
1441.52	5.39196
1444.24	4.69095
1446.96	4.55781
1449.69	5.02148
1452.41	6.13626
1455.13	7.72312
1457.84	8.45516
1460.56	9.19904
1463.28	9.72408
1465.99	9.16177
1468.71	8.87666
1471.42	8.84287
1474.13	8.78024
1476.84	8.52282
1479.55	7.45969
1482.26	4.9291
1484.97	2.29993
1487.68	1.30849
1490.39	1.5257
1493.09	1.70617
1495.79	2.4031
1498.5	3.22214
1501.2	4.08676
1503.9	4.92599
1506.6	5.59325
1509.3	5.57818
1512	5.07731
1514.69	4.31221
1517.39	3.45042
1520.08	2.5748
1522.78	2.41077
1525.47	2.81193
1528.16	3.76234
1530.85	5.14427
1533.54	6.03926
1536.23	6.71854
1538.92	6.35506
1541.61	4.22748
1544.29	2.18919
1546.98	1.2291
1549.66	0.413177
1552.34	-0.689789
1555.02	-3.05676
1557.7	0.585365
1560.38	6.38658
1563.06	7.15112
1565.74	7.01624
1568.42	6.57455
1571.09	5.67262
1573.77	4.31216
1576.44	4.20425
1579.11	7.08463
1581.78	6.71353
1584.45	5.69593
1587.12	3.72623
1589.79	3.08406
1592.46	4.11075
1595.12	4.3189
1597.79	4.58678
1600.45	4.07381
1603.12	3.70016
1605.78	3.65489
1608.44	3.90479
1611.1	4.54453
1613.76	5.60892
1616.42	7.2068
1619.08	7.37124
1621.73	7.12297
1624.39	6.38004
1627.04	5.80485
1629.7	5.67311
1632.35	6.56833
1635	6.97354
1637.65	7.56191
1640.3	7.87264
1642.95	7.42394
1645.59	6.73771
1648.24	5.95297
1650.88	5.07394
1653.53	4.14077
1656.17	2.79528
1658.82	2.98202
1661.46	2.79361
1664.1	2.47797
1666.74	3.74802
1669.37	5.52107
1672.01	6.89888
1674.65	7.93858
1677.28	8.53107
1679.92	8.55997
1682.55	8.12966
1685.18	7.1401
1687.82	5.62177
1690.44	4.3484
1693.07	3.65353
1695.7	3.72132
1698.33	3.45766
1700.96	3.39098
1703.58	3.29622
1706.21	4.68469
1708.83	4.43118
1711.45	4.2403
1714.07	4.2077
1716.69	4.36812
1719.31	4.29947
1721.93	5.32494
1724.55	6.71918
1727.17	11.452
1729.78	10.2729
1732.4	9.1493
1735.01	8.01972
1737.62	7.33618
1740.23	7.01684
1742.85	7.31528
1745.46	7.82051
1748.07	8.648
1750.67	9.31151
1753.28	9.68308
1755.89	9.35598
1758.49	8.50354
1761.09	7.31182
1763.7	2.27896
1766.3	4.69106
1768.9	5.6244
1771.5	5.3149
1774.1	5.60205
1776.7	5.75175
1779.29	6.22094
1781.89	7.24591
1784.49	8.18421
1787.08	8.73168
1789.67	9.10715
1792.27	9.31385
1794.86	9.21886
1797.45	8.63855
1800.04	7.42145
1802.62	6.26867
1805.21	5.23008
1807.8	4.58163
1810.38	4.30696
1812.97	4.55903
1815.55	5.42184
1818.14	6.89346
1820.72	8.49907
1823.3	9.57861
1825.88	10.0244
1828.46	9.88878
1831.03	9.09966
1833.61	6.69582
1836.19	4.99013
1838.76	4.12279
1841.34	4.1175
1843.91	4.10406
1846.48	4.39959
1849.05	4.38847
1851.62	4.76237
1854.19	6.79109
1856.76	9.92761
1859.33	8.7154
1861.89	5.3354
1864.46	2.97902
1867.02	2.63919
1869.59	4.66293
1872.15	6.15871
1874.71	6.19207
1877.27	5.78944
1879.83	6.06257
1882.39	6.63723
1884.95	6.95247
1887.51	6.31546
1890.06	5.68428
1892.62	4.91172
1895.17	4.28347
1897.72	4.47151
1900.27	4.67053
1902.83	5.02068
1905.38	5.37624
1907.93	5.26379
1910.47	4.70222
1913.02	4.2941
1915.57	4.03474
1918.11	4.04401
1920.66	4.13499
1923.2	4.356
1925.74	4.52961
1928.29	4.59898
1930.83	3.55861
1933.37	1.3031
1935.91	-0.236271
1938.44	0.884995
1940.98	2.20354
1943.52	3.12188
1946.05	3.89213
1948.59	4.5774
1951.12	5.12303
1953.65	5.21301
1956.18	4.62439
1958.72	3.80109
1961.25	3.12304
1963.77	2.50923
1966.3	2.70905
1968.83	3.14827
1971.35	3.35688
1973.88	3.44813
1976.4	3.24495
1978.93	3.15662
1981.45	3.07993
1983.97	3.17539
1986.49	3.36901
1989.01	3.48489
1991.53	3.30879
1994.05	2.86673
1996.56	2.44431
1999.08	2.72615
2001.59	3.15447
2004.11	3.65842
2006.62	4.25483
2009.13	4.80469
2011.64	4.91826
2014.15	4.20392
2016.66	3.31038
2019.17	2.60247
2021.68	2.26332
2024.18	1.9259
2026.69	1.83138
2029.19	1.32743
2031.7	0.939674
2034.2	0.45385
2036.7	0.474182
2039.2	1.72142
2041.7	3.52747
2044.2	6.0724
2046.7	7.98235
2049.2	8.61459
2051.7	8.3349
2054.19	7.35711
2056.69	5.31261
2059.18	3.21431
2061.67	1.25969
2064.16	0.322582
2066.65	0.518669
2069.15	1.35141
2071.63	2.40418
2074.12	4.17207
2076.61	5.69262
2079.1	6.73239
2081.58	7.43127
2084.07	7.31915
2086.55	6.864
2089.03	7.07994
2091.51	7.43451
2094	7.18633
2096.47	6.29302
2098.95	4.65288
2101.43	3.42033
2103.91	2.60044
2106.39	2.85143
2108.86	3.32479
2111.34	4.08043
2113.81	4.75844
2116.28	5.29585
2118.76	5.52425
2121.23	5.78006
2123.7	4.40981
2126.17	3.87528
2128.63	3.58554
2131.1	2.69469
2133.57	2.15613
2136.03	2.03129
2138.5	2.34416
2140.96	2.7448
2143.43	3.41879
2145.89	3.87894
2148.35	4.47453
2150.81	5.23108
2153.27	5.90416
2155.73	6.30118
2158.18	5.90937
2160.64	4.67912
2163.1	2.91996
2165.55	1.75544
2168	1.86739
2170.46	2.1565
2172.91	2.02364
2175.36	1.83902
2177.81	1.58627
2180.26	1.30703
2182.71	0.977814
2185.16	0.168739
2187.6	0.148899
2190.05	0.429504
2192.5	0.72747
2194.94	1.01448
2197.38	1.44945
2199.83	2.01801
2202.27	2.59433
2204.71	3.46328
2207.15	3.79192
2209.59	4.03087
2212.02	4.2438
2214.46	3.01942
2216.9	2.42174
2219.33	2.28062
2221.77	2.40373
2224.2	2.69035
2226.64	1.74919
2229.07	2.8825
2231.5	4.06959
2233.93	6.47071
2236.36	7.56922
2238.79	7.54864
2241.21	6.63851
2243.64	5.46519
2246.06	4.19271
2248.49	3.39419
2250.91	2.8483
2253.34	2.37103
2255.76	1.96552
2258.18	1.80679
2260.6	2.01431
2263.02	1.83325
2265.44	1.89031
2267.86	1.91449
2270.27	2.22185
2272.69	2.65777
2275.11	3.08916
2277.52	3.60772
2279.93	4.36438
2282.35	5.16278
2284.76	5.30304
2287.17	5.55606
2289.58	6.35502
2291.99	7.21543
2294.4	7.23827
2296.8	7.72079
2299.21	4.98547
2301.62	5.26334
2304.02	6.01773
2306.43	6.42215
2308.83	6.29778
2311.23	5.77781
2313.63	5.15033
2316.03	4.51815
2318.43	5.53288
2320.83	7.12837
2323.23	8.54689
2325.63	11.1962
2328.02	13.3015
2330.42	12.891
2332.81	11.2415
2335.21	10.0674
2337.6	8.78017
2339.99	7.45654
2342.38	6.18035
2344.77	5.27028
2347.16	4.4709
2349.55	3.95168
2351.94	3.66408
2354.32	2.76546
2356.71	1.88504
2359.1	1.96235
2361.48	2.82829
2363.86	4.47043
2366.25	5.05114
2368.63	4.18831
2371.01	3.0694
2373.39	2.00633
2375.77	1.1642
2378.15	0.686382
2380.52	0.594311
2382.9	0.861641
2385.28	1.43508
2387.65	2.23668
2390.03	3.20946
2392.4	3.96989
2394.77	7.00501
2397.14	3.2378
2399.51	2.75349
2401.88	2.2456
2404.25	1.94944
2406.62	0.406498
2408.99	4.16061
2411.35	3.35001
2413.72	2.54248
2416.08	0.927582
2418.45	2.06917
2420.81	3.2601
2423.17	4.68417
2425.53	6.90163
2427.89	8.27571
2430.25	8.44536
2432.61	7.74728
2434.97	6.38084
2437.33	5.65451
2439.69	4.78979
2442.04	4.62642
2444.4	4.89316
2446.75	5.20518
2449.1	5.66461
2451.45	4.40281
2453.81	4.41112
2456.16	1.74634
2458.51	0.582695
2460.85	1.73151
2463.2	1.80433
2465.55	2.35206
2467.9	3.31067
2470.24	3.72819
2472.59	3.40086
2474.93	1.85242
2477.27	0.972027
2479.62	0.724796
2481.96	1.39269
2484.3	2.58471
2486.64	3.9121
2488.98	2.96012
2491.31	2.41064
2493.65	5.62536
2495.99	5.23167
2498.32	4.35312
2500.66	3.61808
2502.99	3.2497
2505.32	3.26017
2507.66	3.49853
2509.99	4.04158
2512.32	4.4464
2514.65	4.9917
2516.98	5.50171
2519.31	5.9533
2521.63	6.3544
2523.96	6.39114
2526.28	6.0481
2528.61	4.70478
2530.93	4.01472
2533.26	3.93047
2535.58	3.8686
2537.9	2.96181
2540.22	2.89671
2542.54	2.78042
2544.86	2.60559
2547.18	2.54868
2549.5	6.96451
2551.81	7.8327
2554.13	7.99461
2556.44	7.61186
2558.76	7.49633
2561.07	7.42112
2563.38	6.04744
2565.69	5.15173
2568.01	4.68399
2570.32	5.40231
2572.62	6.4037
2574.93	6.46756
2577.24	5.51987
2579.55	2.20188
2581.85	-0.191463
2584.16	-1.0922
2586.46	-0.652428
2588.77	1.3268
2591.07	2.77562
2593.37	4.15089
2595.67	5.5816
2597.97	6.7328
2600.27	7.19255
2602.57	6.5944
2604.87	5.1732
2607.17	3.2776
2609.46	3.76513
2611.76	4.30749
2614.05	4.87951
2616.35	5.54095
2618.64	6.13369
2620.93	6.41129
2623.22	6.36435
2625.51	5.98708
2627.8	5.81992
2630.09	5.85085
2632.38	5.81926
2634.67	5.76838
2636.96	5.7319
2639.24	5.21661
2641.53	5.33846
2643.81	5.22416
2646.09	4.7933
2648.38	4.39436
2650.66	4.0329
2652.94	3.53108
2655.22	2.67825
2657.5	1.40209
2659.78	1.58177
2662.06	4.16613
2664.33	5.68872
2666.61	7.11284
2668.88	6.83768
2671.16	6.46013
2673.43	5.94627
2675.71	5.93992
2677.98	5.66426
2680.25	5.85616
2682.52	6.05918
2684.79	6.03505
2687.06	6.30445
2689.33	7.20358
2691.6	8.29298
2693.86	8.2424
2696.13	7.14932
2698.39	6.02835
2700.66	4.94733
2702.92	3.31382
2705.18	1.64657
2707.45	-0.0195961
2709.71	0.270763
2711.97	1.86332
2714.23	3.856
2716.49	5.86399
2718.74	7.31846
2721	7.36191
2723.26	7.14446
2725.51	7.02568
2727.77	6.94231
2730.02	6.82269
2732.28	4.74063
2734.53	4.73798
2736.78	4.90908
2739.03	4.66722
2741.28	6.76357
2743.53	7.7013
2745.78	4.9816
2748.03	4.8469
2750.27	5.30934
2752.52	4.69597
2754.77	4.92946
2757.01	4.13927
2759.26	4.29201
2761.5	5.13448
2763.74	6.1681
2765.98	7.31295
2768.22	7.37268
2770.46	7.59343
2772.7	7.78117
2774.94	7.11903
2777.18	5.80241
2779.42	4.67527
2781.65	3.70931
2783.89	3.13625
2786.12	2.76238
2788.36	2.50055
2790.59	2.55516
2792.82	3.19039
2795.05	4.27234
2797.28	4.61518
2799.51	4.69295
2801.74	4.92749
2803.97	5.1733
2806.2	5.62794
2808.43	6.40642
2810.65	4.70768
2812.88	3.69857
2815.1	3.82312
2817.33	5.47929
2819.55	6.90826
2821.77	7.81222
2823.99	7.9074
2826.21	7.39416
2828.43	6.31132
2830.65	5.26839
2832.87	4.11529
2835.09	3.89483
2837.3	3.50943
2839.52	2.64634
2841.74	3.06285
2843.95	3.6295
2846.17	4.21453
2848.38	4.404
2850.59	4.92515
2852.8	4.61809
2855.01	4.17453
2857.22	3.95101
2859.43	3.18186
2861.64	1.73158
2863.85	3.35143
2866.06	4.26869
2868.26	4.38363
2870.47	4.58159
2872.67	4.76558
2874.88	4.92113
2877.08	5.01719
2879.28	5.07285
2881.48	4.99711
2883.68	4.76573
2885.89	4.58221
2888.08	4.4954
2890.28	4.82824
2892.48	5.30754
2894.68	6.02794
2896.87	6.82946
2899.07	8.48885
2901.26	8.37899
2903.46	8.00677
2905.65	7.00983
2907.85	5.8208
2910.04	4.84875
2912.23	4.09536
2914.42	2.08469
2916.61	1.00906
2918.8	0.458714
2920.98	0.408646
2923.17	0.73579
2925.36	1.29335
2927.54	2.02594
2929.73	2.85362
2931.91	3.95966
2934.1	5.09375
2936.28	6.22904
2938.46	6.51097
2940.64	5.69342
2942.82	4.91485
2945	4.44203
2947.18	3.70449
2949.36	3.25007
2951.54	3.11015
2953.72	3.15989
2955.89	3.76534
2958.07	4.33715
2960.24	4.5634
2962.42	4.98022
2964.59	5.59708
2966.76	5.60127
2968.93	4.84588
2971.1	3.86695
2973.27	3.12861
2975.44	3.00279
2977.61	3.59421
2979.78	3.7396
2981.95	2.87376
2984.11	2.22091
2986.28	1.76058
2988.45	1.76902
2990.61	2.43454
2992.77	2.66932
2994.94	3.0235
2997.1	2.99896
2999.26	2.8394
3001.42	3.11291
3003.58	3.06633
3005.74	2.72412
3007.9	2.64986
3010.06	2.84879
3012.21	3.20004
3014.37	3.77055
3016.52	4.61047
3018.68	5.56541
3020.83	6.36988
3022.99	6.26661
3025.14	5.43824
3027.29	4.80262
3029.44	4.47331
3031.59	4.33175
3033.74	4.20625
3035.89	4.72053
3038.04	4.01523
3040.19	2.86465
3042.33	2.44297
3044.48	2.85572
3046.62	5.11713
3048.77	6.05145
3050.91	5.69344
3053.05	5.30529
3055.2	4.52752
3057.34	4.42784
3059.48	4.91927
3061.62	4.2214
3063.76	3.88298
3065.9	3.89698
3068.03	3.95887
3070.17	4.11109
3072.31	3.22635
3074.44	2.58522
3076.58	2.87142
3078.71	4.24374
3080.85	5.84295
3082.98	6.73404
3085.11	7.5188
3087.24	7.78248
3089.37	5.90809
3091.5	3.58873
3093.63	2.55948
3095.76	2.47835
3097.89	3.44953
3100.02	5.55021
3102.14	7.45414
3104.27	8.91849
3106.39	9.54657
3108.52	9.49553
3110.64	8.73841
3112.76	8.2671
3114.89	7.96613
3117.01	6.64566
3119.13	6.56002
3121.25	6.93072
3123.37	7.43537
3125.49	7.61142
3127.6	6.94271
3129.72	8.10839
3131.84	8.28821
3133.95	8.597
3136.07	9.26154
3138.18	9.86087
3140.29	9.34367
3142.41	8.28384
3144.52	7.49921
3146.63	7.17326
3148.74	7.44357
3150.85	7.67245
3152.96	6.21501
3155.07	4.88271
3157.18	4.94298
3159.28	7.86611
3161.39	7.14277
3163.5	7.244
3165.6	7.58588
3167.71	7.90557
3169.81	8.10163
3171.91	8.4217
3174.01	9.49212
3176.12	10.4981
3178.22	10.958
3180.32	11.0274
3182.42	11.1225
3184.51	11.3895
3186.61	11.4848
3188.71	11.6592
3190.8	10.8011
3192.9	9.7094
3195	8.62794
3197.09	7.5391
3199.18	7.72839
3201.28	9.36625
3203.37	10.4488
3205.46	10.736
3207.55	10.8948
3209.64	11.4103
3211.73	11.2534
3213.82	10.8284
3215.91	10.0826
3218	9.3786
3220.08	8.94349
3222.17	8.84954
3224.25	9.0163
3226.34	9.32681
3228.42	8.65417
3230.5	8.18312
3232.59	8.64195
3234.67	10.7171
3236.75	10.763
3238.83	10.1832
3240.91	9.34086
3242.99	8.41752
