#Acq. time (s)=	20
#Accumulations=	3
#Range (cm-¹)=	100...4000
#Windows=	1
#Auto scanning=	Off
#Autofocus=	Off
#Macrospot=	Off
#AutoExposure=	Off
#Spike filter=	Multiple accum.
#Delay time (s)=	0
#Binning=	1
#Readout mode=	Signal
#DeNoise=	Lite
#ICS correction=	Off
#Dark correction=	Off
#Inst. Process=	Off
#Detector temperature (°C)=	-60.09
#Instrument=	LabRAM HR Evol
#Detector=	SIN-EM FIVIS
#Objective=	x100_VIS
#Grating=	150 (500nm)
#ND Filter=	100%
#Laser=	633nm_Edge
#Hole=	30.0125
#Temperature=	0
#Range=	Visible
#StageXY=	75x50mm Scan+
#StageZ=	Z motor
#X (µm)=	7064
#Y (µm)=	-135.7
#Z (µm)=	1846.5
#Full time(mm:ss)=	1:02
#Project=	Buranga
#Sample=	BU18FA20_F
#Site=	F_Bertoss1
#Title=	20-F_brt1_FI01
#Remark=	
#Date=	30.07.2019 15:56
#Acquired=	30.07.2019 15:56:48
#Data Range:Extract=	16.12.2021 15:36:30
#Base:Fit=	16.12.2021 15:36:40
#Base:Edit=	16.12.2021 15:40:10
#Base:Sub=	16.12.2021 15:40:16
100.38	140.038
103.641	121.007
106.898	115.192
110.156	97.0404
113.411	86.8288
116.666	76.6918
119.918	68.975
123.17	64.3379
126.419	61.3461
129.669	56.2326
132.916	52.4017
136.163	50.7356
139.407	49.2224
142.651	46.7966
145.892	43.5807
149.134	40.4412
152.372	37.552
155.611	35.3187
158.847	33.3372
162.083	31.6053
165.316	29.9079
168.548	28.0783
171.781	25.0841
175.01	22.0364
178.239	19.2555
181.466	17.4773
184.693	14.6549
187.917	10.8519
191.139	8.18301
194.362	6.50217
197.582	6.14034
200.802	6.30901
204.02	5.52996
207.236	3.42149
210.452	1.71297
213.665	-0.0118408
216.877	-0.0970001
220.089	1.25928
223.299	4.35551
226.508	9.37975
229.715	17.922
232.92	33.8446
236.126	47.386
239.329	67.8342
242.53	57.7604
245.732	35.5655
248.931	19.3765
252.128	23.463
255.326	17.5263
258.521	19.8358
261.714	24.8393
264.906	26.5346
268.099	17.1893
271.288	30.1338
274.477	40.6787
277.665	43.9195
280.851	65.4633
284.035	72.2102
287.218	78.6781
290.402	69.3638
293.582	58.7828
296.761	42.8535
299.939	28.8308
303.117	17.7105
306.293	10.625
309.466	8.82454
312.639	11.7406
315.811	19.6823
318.982	30.8129
322.151	48.523
325.318	70.3708
328.484	114.254
331.651	107.275
334.814	84.584
337.977	65.6027
341.138	49.3453
344.297	36.1963
347.456	26.9274
350.614	24.1177
353.77	21.9423
356.925	22.3983
360.078	26.7218
363.23	34.1244
366.381	36.693
369.53	36.2451
372.68	34.0111
375.827	28.23
378.972	17.0119
382.116	17.4373
385.259	9.82628
388.401	4.65314
391.541	2.58871
394.681	3.85603
397.818	7.96436
400.956	11.3342
404.092	14.006
407.226	17.2064
410.359	19.5085
413.49	21.5755
416.62	24.526
419.749	27.9162
422.877	30.2021
426.003	37.4412
429.128	45.3424
432.252	58.6213
435.375	68.1399
438.496	72.2105
441.616	72.517
444.735	70.1005
447.852	67.755
450.969	65.5379
454.084	63.0378
457.197	59.2389
460.31	55.6746
463.421	52.1377
466.531	47.5189
469.64	41.7771
472.747	36.5484
475.853	31.4854
478.958	26.1637
482.062	22.0291
485.164	19.9106
488.265	18.825
491.365	18.6716
494.464	18.7192
497.561	19.5395
500.657	21.4244
503.752	23.6787
506.844	26.019
509.937	28.4358
513.028	29.0409
516.117	29.4243
519.206	29.8018
522.293	29.7745
525.38	29.1287
528.464	29.4983
531.548	30.2544
534.63	30.4197
537.71	29.3698
540.79	27.5964
543.869	25.9067
546.946	24.2552
550.022	23.5389
553.097	24.9431
556.169	24.0879
559.242	23.2084
562.313	22.1074
565.383	20.8051
568.452	18.6152
571.519	16.0335
574.584	14.8827
577.649	14.9207
580.713	16.5071
583.775	19.8301
586.837	24.8036
589.895	31.946
592.954	41.764
596.012	52.3487
599.068	63.2881
602.122	70.917
605.176	74.4802
608.229	70.9077
611.28	65.6927
614.329	60.6867
617.378	56.8798
620.426	54.122
623.473	53.1015
626.517	53.4292
629.561	54.9539
632.604	56.1832
635.644	56.7197
638.684	53.7964
641.724	51.822
644.76	50.3115
647.797	49.7093
650.833	51.8941
653.867	53.7214
656.899	56.1977
659.931	58.7488
662.96	58.2252
665.99	54.5072
669.018	48.2952
672.044	41.0283
675.07	34.3369
678.095	28.2407
681.117	23.0554
684.139	18.2086
687.16	14.1159
690.179	11.2436
693.197	9.11132
696.213	7.74944
699.23	6.95083
702.245	6.32997
705.257	6.54251
708.27	7.46509
711.28	8.90573
714.29	10.032
717.298	10.1069
720.306	10.2276
723.312	9.88438
726.316	9.00156
729.321	7.86147
732.322	3.36028
735.324	2.34325
738.323	1.7242
741.323	4.62711
744.32	5.56324
747.317	7.38744
750.311	5.82404
753.306	4.89417
756.298	4.88153
759.291	5.40913
762.28	4.00857
765.27	2.34058
768.258	2.32834
771.245	2.50177
774.23	2.54901
777.215	2.5769
780.198	2.44736
783.179	2.29115
786.161	1.98177
789.14	1.67107
792.119	1.27213
795.096	0.847015
798.073	4.18572
801.047	10.2997
804.021	5.2694
806.994	2.03481
809.965	-0.0485458
812.936	2.13617
815.904	3.59409
818.871	5.52354
821.839	7.47754
824.804	7.33777
827.769	4.47606
830.732	2.31359
833.693	0.543999
836.655	3.3057
839.614	6.08894
842.572	5.8315
845.53	5.11604
848.485	4.56369
851.44	4.39931
854.394	4.68856
857.346	5.12817
860.297	5.57194
863.248	6.13419
866.197	7.06492
869.144	8.045
872.091	8.06907
875.037	7.68175
877.981	7.25909
880.924	6.76205
883.867	6.5326
886.807	6.63234
889.746	7.31579
892.685	8.07423
895.623	8.48351
898.559	8.13234
901.493	7.58788
904.427	7.42511
907.359	6.97511
910.292	6.40066
913.222	5.24721
916.151	4.50132
919.078	4.85113
922.006	6.12722
924.932	7.97571
927.856	9.86777
930.779	11.4952
933.701	13.6898
936.622	15.7535
939.543	19.6811
942.461	24.0144
945.379	28.5165
948.295	32.9516
951.21	37.0283
954.124	41.2767
957.037	45.6413
959.95	50.466
962.861	55.2078
965.77	60.4673
968.678	66.3455
971.585	71.3455
974.491	82.1431
977.396	95.9319
980.3	118.359
983.202	145.762
986.104	166.448
989.005	192.296
991.904	212.295
994.802	206.165
997.699	184.089
1000.6	158.848
1003.49	139.49
1006.38	121.431
1009.28	117.995
1012.17	121.59
1015.06	124.711
1017.95	132.4
1020.83	141.31
1023.72	148.141
1026.61	153.314
1029.49	148.398
1032.37	135.931
1035.26	110.227
1038.14	86.9847
1041.02	69.4936
1043.9	55.2625
1046.77	49.1023
1049.65	43.2563
1052.53	38.5234
1055.4	34.2508
1058.27	30.2865
1061.15	26.4455
1064.02	24.4912
1066.88	23.9532
1069.75	27.4355
1072.62	31.0865
1075.49	35.7103
1078.35	39.9896
1081.22	44.0707
1084.08	47.7419
1086.94	51.1107
1089.8	54.8814
1092.66	57.7705
1095.52	59.4789
1098.38	64.1653
1101.23	64.8997
1104.09	62.888
1106.94	55.2429
1109.8	42.4337
1112.65	36.0188
1115.5	29.051
1118.35	24.2766
1121.2	20.3496
1124.05	17.7546
1126.89	16.3634
1129.74	15.8756
1132.58	17.115
1135.42	19.2013
1138.27	22.0195
1141.11	25.2459
1143.95	29.3386
1146.78	33.7053
1149.62	38.73
1152.46	41.7601
1155.29	44.4437
1158.13	40.9541
1160.96	35.7363
1163.79	29.3825
1166.62	21.0302
1169.45	15.7294
1172.28	12.6939
1175.11	11.9698
1177.93	11.3128
1180.76	10.9754
1183.59	10.3754
1186.41	9.12842
1189.23	6.98772
1192.05	4.98035
1194.87	3.70127
1197.69	2.95579
1200.51	2.69431
1203.32	2.85177
1206.14	3.62379
1208.95	3.77467
1211.77	3.2868
1214.58	3.03767
1217.39	3.35562
1220.2	4.22735
1223.01	4.41481
1225.82	3.62596
1228.62	3.15622
1231.43	3.24004
1234.23	3.86414
1237.04	4.38095
1239.84	5.04978
1242.64	5.93806
1245.44	6.17992
1248.24	1.62532
1251.04	-0.326988
1253.83	0.343689
1256.63	3.71016
1259.42	5.32556
1262.22	11.1391
1265.01	9.11028
1267.8	6.74538
1270.59	5.07673
1273.38	8.61424
1276.17	8.26659
1278.96	23.0521
1281.74	68.4556
1284.53	60.8776
1287.31	20.5052
1290.1	12.4373
1292.88	6.67515
1295.66	1.98289
1298.44	1.03019
1301.22	1.56831
1303.99	2.61742
1306.77	4.25671
1309.55	6.8341
1312.32	8.4493
1315.09	8.72603
1317.87	8.75888
1320.64	8.78623
1323.41	8.46084
1326.18	7.71316
1328.94	6.94798
1331.71	6.19694
1334.48	5.65135
1337.24	5.51715
1340	5.21455
1342.77	5.1825
1345.53	4.95543
1348.29	4.21478
1351.05	4.19145
1353.81	4.17065
1356.56	4.59169
1359.32	5.36519
1362.08	6.2915
1364.83	7.18932
1367.58	7.73851
1370.33	8.02773
1373.09	9.18252
1375.84	9.49391
1378.58	16.4184
1381.33	25.2592
1384.08	99.5345
1386.82	136.575
1389.57	47.3657
1392.31	21.0356
1395.06	11.6691
1397.8	4.0292
1400.54	7.40308
1403.28	12.3952
1406.02	12.5235
1408.75	12.4431
1411.49	8.24818
1414.22	6.95003
1416.96	7.98151
1419.69	8.16143
1422.42	8.13273
1425.15	7.60773
1427.88	6.84807
1430.61	6.12244
1433.34	5.30448
1436.07	3.62059
1438.79	1.71883
1441.52	1.75998
1444.24	3.87276
1446.96	3.57697
1449.69	0.0459213
1452.41	0.91642
1455.13	1.924
1457.84	3.90958
1460.56	6.1551
1463.28	7.59547
1465.99	8.1723
1468.71	7.1366
1471.42	5.67162
1474.13	4.1933
1476.84	2.96976
1479.55	2.15151
1482.26	1.52337
1484.97	1.15798
1487.68	0.974792
1490.39	0.95649
1493.09	0.993774
1495.79	1.55872
1498.5	2.79299
1501.2	4.11535
1503.9	4.05247
1506.6	4.5488
1509.3	4.81079
1512	5.6395
1514.69	6.11314
1517.39	5.42678
1520.08	4.97453
1522.78	5.03949
1525.47	5.32079
1528.16	4.66801
1530.85	2.54299
1533.54	0.633675
1536.23	0.085144
1538.92	0.18808
1541.61	1.16984
1544.29	2.31823
1546.98	3.28042
1549.66	4.19037
1552.34	4.98148
1555.02	5.67695
1557.7	5.86707
1560.38	5.38831
1563.06	5.07737
1565.74	5.03013
1568.42	5.40486
1571.09	6.03776
1573.77	6.93357
1576.44	8.11263
1579.11	8.74969
1581.78	8.91042
1584.45	8.67999
1587.12	8.26781
1589.79	7.50003
1592.46	7.21993
1595.12	7.22723
1597.79	7.44267
1600.45	6.93021
1603.12	6.35711
1605.78	7.20593
1608.44	9.22978
1611.1	10.6058
1613.76	10.9772
1616.42	11.0495
1619.08	10.9513
1621.73	10.6771
1624.39	10.0648
1627.04	9.80009
1629.7	8.9855
1632.35	8.13828
1635	7.40497
1637.65	6.8998
1640.3	6.80923
1642.95	6.92709
1645.59	6.7955
1648.24	7.33651
1650.88	8.60946
1653.53	10.6154
1656.17	11.3494
1658.82	11.3347
1661.46	10.7348
1664.1	10.1092
1666.74	9.61401
1669.37	8.62909
1672.01	7.31095
1674.65	7.45446
1677.28	7.90334
1679.92	8.40617
1682.55	8.69918
1685.18	9.04891
1687.82	9.66827
1690.44	10.0581
1693.07	9.55478
1695.7	8.84437
1698.33	7.87233
1700.96	7.62716
1703.58	7.94595
1706.21	8.53035
1708.83	8.65972
1711.45	7.64378
1714.07	6.60854
1716.69	5.72623
1719.31	6.46892
1721.93	8.20795
1724.55	8.7856
1727.17	7.82059
1729.78	9.87899
1732.4	9.86681
1735.01	7.60709
1737.62	7.64346
1740.23	7.8198
1742.85	8.1553
1745.46	8.52453
1748.07	9.25817
1750.67	8.65383
1753.28	5.01097
1755.89	1.77874
1758.49	-0.664589
1761.09	2.18282
1763.7	5.3604
1766.3	8.08291
1768.9	9.23855
1771.5	9.54269
1774.1	8.20277
1776.7	7.08819
1779.29	6.78151
1781.89	6.79845
1784.49	6.87943
1787.08	6.93941
1789.67	7.12925
1792.27	7.86304
1794.86	8.612
1797.45	9.03082
1800.04	9.62791
1802.62	9.96
1805.21	8.9805
1807.8	7.59348
1810.38	6.56413
1812.97	6.34671
1815.55	6.31907
1818.14	5.98657
1820.72	5.73669
1823.3	5.45053
1825.88	5.32846
1828.46	5.41267
1831.03	4.97448
1833.61	4.28657
1836.19	4.95457
1838.76	6.11057
1841.34	6.55556
1843.91	6.13225
1846.48	4.37865
1849.05	2.20273
1851.62	2.19411
1854.19	4.99077
1856.76	6.37142
1859.33	7.56229
1861.89	8.50924
1864.46	8.92416
1867.02	9.12584
1869.59	7.74331
1872.15	5.32275
1874.71	4.71162
1877.27	4.51752
1879.83	4.44019
1882.39	4.47673
1884.95	4.609
1887.51	4.93346
1890.06	5.42225
1892.62	6.06224
1895.17	6.70438
1897.72	5.82607
1900.27	7.01151
1902.83	6.9355
1905.38	9.84902
1907.93	10.537
1910.47	7.83753
1913.02	4.42905
1915.57	6.08699
1918.11	8.11257
1920.66	8.91293
1923.2	9.21742
1925.74	8.50933
1928.29	7.62103
1930.83	6.42453
1933.37	5.33002
1935.91	4.27222
1938.44	2.21926
1940.98	1.9693
1943.52	2.56206
1946.05	3.44701
1948.59	3.23724
1951.12	3.62953
1953.65	9.50317
1956.18	7.3679
1958.72	6.4913
1961.25	5.8644
1963.77	6.37148
1966.3	6.47847
1968.83	6.95937
1971.35	6.7785
1973.88	5.59439
1976.4	6.12063
1978.93	7.13507
1981.45	8.14066
1983.97	9.81747
1986.49	10.1501
1989.01	9.10806
1991.53	8.26305
1994.05	7.72171
1996.56	7.59148
1999.08	6.88492
2001.59	5.10604
2004.11	0.416534
2006.62	3.32989
2009.13	5.3653
2011.64	5.78612
2014.15	5.94814
2016.66	6.10383
2019.17	6.34419
2021.68	6.61602
2024.18	6.81396
2026.69	6.96049
2029.19	5.87845
2031.7	5.64914
2034.2	5.76494
2036.7	6.16129
2039.2	6.62052
2041.7	7.01868
2044.2	7.35213
2046.7	7.63898
2049.2	7.9434
2051.7	8.17864
2054.19	8.27404
2056.69	7.17715
2059.18	5.58537
2061.67	3.21643
2064.16	2.57016
2066.65	3.10934
2069.15	3.95319
2071.63	3.97617
2074.12	4.99516
2076.61	6.56711
2079.1	8.58447
2081.58	8.4715
2084.07	6.82053
2086.55	6.91025
2089.03	7.48412
2091.51	8.41424
2094	9.1402
2096.47	8.7419
2098.95	8.26143
2101.43	8.84769
2103.91	9.9245
2106.39	10.9459
2108.86	9.87976
2111.34	8.24045
2113.81	6.90205
2116.28	5.92867
2118.76	5.1713
2121.23	4.98499
2123.7	5.05366
2126.17	5.09927
2128.63	5.43697
2131.1	5.89454
2133.57	6.23728
2136.03	6.03319
2138.5	5.92828
2140.96	6.67443
2143.43	7.97832
2145.89	9.73758
2148.35	10.1861
2150.81	9.26852
2153.27	7.84335
2155.73	5.74869
2158.18	3.55785
2160.64	2.37672
2163.1	2.45116
2165.55	3.17665
2168	4.41101
2170.46	6.00773
2172.91	7.69633
2175.36	8.07939
2177.81	7.93952
2180.26	5.73118
2182.71	8.89771
2185.16	8.66299
2187.6	8.16554
2190.05	7.41187
2192.5	5.87716
2194.94	8.18494
2197.38	8.19181
2199.83	8.83537
2202.27	10.1642
2204.71	11.9354
2207.15	11.4458
2209.59	9.92637
2212.02	10.2001
2214.46	10.2018
2216.9	9.73839
2219.33	8.84208
2221.77	6.50753
2224.2	5.71719
2226.64	2.7403
2229.07	2.24409
2231.5	2.82014
2233.93	3.84359
2236.36	5.61729
2238.79	6.49585
2241.21	7.22285
2243.64	8.09137
2246.06	8.07867
2248.49	7.86147
2250.91	7.50336
2253.34	7.00217
2255.76	6.02157
2258.18	5.01555
2260.6	5.70766
2263.02	5.50241
2265.44	4.68481
2267.86	5.27034
2270.27	4.97952
2272.69	6.5049
2275.11	7.22312
2277.52	7.43122
2279.93	7.6548
2282.35	7.48367
2284.76	7.10227
2287.17	6.46965
2289.58	8.18785
2291.99	8.25401
2294.4	7.37231
2296.8	6.08517
2299.21	4.72652
2301.62	1.26885
2304.02	3.43511
2306.43	4.79587
2308.83	6.26756
2311.23	7.69771
2313.63	9.02931
2316.03	10.1623
2318.43	11.2788
2320.83	12.0215
2323.23	11.7989
2325.63	11.1074
2328.02	10.1282
2330.42	9.10431
2332.81	8.12319
2335.21	7.17441
2337.6	6.40295
2339.99	5.77773
2342.38	5.16908
2344.77	4.86855
2347.16	5.24445
2349.55	6.0398
2351.94	7.13738
2354.32	9.67214
2356.71	9.83003
2359.1	9.30025
2361.48	8.29498
2363.86	6.27978
2366.25	5.11436
2368.63	4.98717
2371.01	5.75907
2373.39	7.00265
2375.77	8.92861
2378.15	10.0008
2380.52	8.64526
2382.9	6.42339
2385.28	5.03987
2387.65	3.85188
2390.03	2.83142
2392.4	0.735275
2394.77	6.06934
2397.14	6.87366
2399.51	6.71422
2401.88	6.88604
2404.25	7.15318
2406.62	6.55598
2408.99	5.86905
2411.35	4.90614
2413.72	4.42818
2416.08	4.28288
2418.45	4.95254
2420.81	6.78618
2423.17	8.31014
2425.53	8.88908
2427.89	9.30219
2430.25	8.94011
2432.61	7.27065
2434.97	5.85338
2437.33	5.51336
2439.69	5.54826
2442.04	6.28136
2444.4	6.91006
2446.75	7.46288
2449.1	7.7987
2451.45	8.10651
2453.81	8.14311
2456.16	7.49418
2458.51	6.05171
2460.85	4.46047
2463.2	2.8375
2465.55	1.47248
2467.9	0.462898
2470.24	0.350731
2472.59	2.31875
2474.93	3.94936
2477.27	5.39645
2479.62	6.61772
2481.96	7.68305
2484.3	8.53268
2486.64	9.14607
2488.98	9.25149
2491.31	9.31679
2493.65	9.38992
2495.99	9.78636
2498.32	9.4441
2500.66	8.26454
2502.99	7.59276
2505.32	7.0928
2507.66	6.85395
2509.99	5.89297
2512.32	4.94913
2514.65	3.49815
2516.98	2.21572
2519.31	0.147797
2521.63	-0.957611
2523.96	-0.189415
2526.28	1.83686
2528.61	4.18753
2530.93	6.81812
2533.26	7.08118
2535.58	7.27498
2537.9	8.07726
2540.22	9.89251
2542.54	9.81288
2544.86	9.65565
2547.18	9.42514
2549.5	8.95114
2551.81	8.44057
2554.13	7.87278
2556.44	7.34874
2558.76	6.86706
2561.07	6.68642
2563.38	6.70176
2565.69	6.97559
2568.01	6.87629
2570.32	7.73283
2572.62	9.43629
2574.93	9.924
2577.24	7.4807
2579.55	6.29874
2581.85	6.10039
2584.16	6.95434
2586.46	8.09439
2588.77	8.95905
2591.07	9.65188
2593.37	9.59513
2595.67	7.99053
2597.97	6.27448
2600.27	4.24922
2602.57	2.80405
2604.87	2.37103
2607.17	3.58815
2609.46	4.2268
2611.76	5.47168
2614.05	6.3262
2616.35	7.0531
2618.64	7.66653
2620.93	7.75733
2623.22	7.82632
2625.51	6.89245
2627.8	6.45992
2630.09	6.22411
2632.38	6.76896
2634.67	7.53915
2636.96	8.606
2639.24	9.75193
2641.53	9.61485
2643.81	8.42616
2646.09	6.7141
2648.38	5.39524
2650.66	4.90063
2652.94	5.15889
2655.22	5.891
2657.5	7.09732
2659.78	8.62061
2662.06	9.34228
2664.33	8.38782
2666.61	7.11293
2668.88	7.3702
2671.16	7.55819
2673.43	6.70138
2675.71	6.57838
2677.98	7.11375
2680.25	7.58485
2682.52	7.47516
2684.79	7.09763
2687.06	11.2248
2689.33	11.4147
2691.6	12.2188
2693.86	10.3025
2696.13	7.5342
2698.39	6.67825
2700.66	6.42735
2702.92	7.1432
2705.18	7.73421
2707.45	6.21751
2709.71	6.33456
2711.97	5.55
2714.23	6.82001
2716.49	7.77772
2718.74	9.3723
2721	10.4442
2723.26	11.4393
2725.51	12.4141
2727.77	12.5649
2730.02	11.0387
2732.28	9.64314
2734.53	8.78126
2736.78	9.76524
2739.03	9.44189
2741.28	10.4722
2743.53	10.1376
2745.78	8.7587
2748.03	6.31591
2750.27	4.95223
2752.52	7.91219
2754.77	9.69131
2757.01	7.51009
2759.26	10.8993
2761.5	10.8301
2763.74	10.367
2765.98	7.41727
2768.22	7.72877
2770.46	9.09355
2772.7	7.81735
2774.94	6.65512
2777.18	5.20509
2779.42	3.35029
2781.65	1.14692
2783.89	-0.432961
2786.12	2.74464
2788.36	5.79448
2790.59	7.36991
2792.82	8.06447
2795.05	8.00294
2797.28	8.13718
2799.51	8.51524
2801.74	9.09912
2803.97	9.78128
2806.2	9.83004
2808.43	9.87996
2810.65	9.51806
2812.88	9.34931
2815.1	9.26514
2817.33	9.23374
2819.55	9.3488
2821.77	9.70618
2823.99	10.0285
2826.21	10.1509
2828.43	9.42918
2830.65	8.96683
2832.87	8.52119
2835.09	7.88017
2837.3	6.18052
2839.52	4.09908
2841.74	1.29057
2843.95	-0.786636
2846.17	-0.52282
2848.38	1.00427
2850.59	5.11917
2852.8	6.77618
2855.01	7.7254
2857.22	7.8526
2859.43	7.84072
2861.64	7.63718
2863.85	6.96157
2866.06	6.22952
2868.26	7.71053
2870.47	8.10938
2872.67	7.94565
2874.88	7.52584
2877.08	8.2205
2879.28	6.57468
2881.48	4.24352
2883.68	4.07519
2885.89	4.84144
2888.08	5.05846
2890.28	3.7542
2892.48	3.59062
2894.68	4.47802
2896.87	5.65066
2899.07	8.02687
2901.26	9.9619
2903.46	8.95414
2905.65	7.33576
2907.85	6.32136
2910.04	6.42532
2912.23	7.10166
2914.42	6.78229
2916.61	5.32408
2918.8	3.1115
2920.98	3.91346
2923.17	4.7294
2925.36	6.30428
2927.54	6.89243
2929.73	7.10327
2931.91	5.9413
2934.1	4.50538
2936.28	2.92723
2938.46	0.795906
2940.64	0.930031
2942.82	2.69959
2945	5.4315
2947.18	8.65598
2949.36	11.8265
2951.54	9.26551
2953.72	7.18925
2955.89	5.75008
2958.07	4.94829
2960.24	4.40402
2962.42	4.20451
2964.59	4.01375
2966.76	3.39708
2968.93	2.84825
2971.1	3.34137
2973.27	4.70284
2975.44	7.30714
2977.61	10.2024
2979.78	10.0337
2981.95	7.86381
2984.11	5.42398
2986.28	3.65347
2988.45	2.36749
2990.61	2.35947
2992.77	3.37352
2994.94	5.09373
2997.1	7.64436
2999.26	8.50594
3001.42	8.29785
3003.58	6.88187
3005.74	5.56519
3007.9	4.57204
3010.06	3.73785
3012.21	3.09907
3014.37	2.49256
3016.52	3.0496
3018.68	3.19798
3020.83	2.97198
3022.99	3.74454
3025.14	3.80843
3027.29	2.44658
3029.44	1.73135
3031.59	1.71848
3033.74	1.23158
3035.89	0.34388
3038.04	0.0167694
3040.19	0.925217
3042.33	1.90498
3044.48	2.68716
3046.62	3.00928
3048.77	3.43114
3050.91	4.04444
3053.05	4.7451
3055.2	5.54311
3057.34	6.46243
3059.48	5.55408
3061.62	8.6826
3063.76	9.26653
3065.9	8.91891
3068.03	8.17858
3070.17	7.04812
3072.31	6.01168
3074.44	5.2744
3076.58	4.67085
3078.71	3.96056
3080.85	3.1991
3082.98	3.19777
3085.11	4.4297
3087.24	6.10745
3089.37	6.84158
3091.5	6.34289
3093.63	6.03343
3095.76	5.8161
3097.89	5.30139
3100.02	4.23545
3102.14	3.96652
3104.27	4.61424
3106.39	5.3993
3108.52	6.31578
3110.64	7.26283
3112.76	8.54898
3114.89	8.88688
3117.01	8.9594
3119.13	8.61639
3121.25	8.24619
3123.37	7.78876
3125.49	7.41078
3127.6	6.79343
3129.72	3.58725
3131.84	2.09611
3133.95	2.50126
3136.07	2.84808
3138.18	3.55406
3140.29	5.0518
3142.41	5.61591
3144.52	5.228
3146.63	4.43753
3148.74	3.80602
3150.85	3.2664
3152.96	2.84047
3155.07	2.66994
3157.18	2.73649
3159.28	3.2771
3161.39	3.92426
3163.5	5.14271
3165.6	5.2262
3167.71	5.18979
3169.81	5.17151
3171.91	5.24055
3174.01	6.18244
3176.12	7.42835
3178.22	7.40784
3180.32	7.41496
3182.42	6.96861
3184.51	5.47887
3186.61	6.1438
3188.71	7.0462
3190.8	8.46977
3192.9	9.26768
3195	7.42246
3197.09	7.91946
3199.18	9.07993
3201.28	9.72119
3203.37	10.1429
3205.46	10.2512
3207.55	9.89391
3209.64	8.62389
3211.73	7.87319
3213.82	7.41714
3215.91	7.15063
3218	6.86542
3220.08	7.01624
3222.17	9.21251
3224.25	10.7118
3226.34	10.7032
3228.42	10.3226
3230.5	9.76464
3232.59	9.19709
3234.67	9.03487
3236.75	8.05523
3238.83	7.10225
3240.91	7.38397
3242.99	8.34432
3245.07	9.10786
