#Acq. time (s)=	20
#Accumulations=	3
#Range (cm-¹)=	100...4000
#Windows=	1
#Auto scanning=	Off
#Autofocus=	Off
#Macrospot=	Off
#AutoExposure=	Off
#Spike filter=	Multiple accum.
#Delay time (s)=	0
#Binning=	1
#Readout mode=	Signal
#DeNoise=	Lite
#ICS correction=	Off
#Dark correction=	Off
#Inst. Process=	Off
#Detector temperature (°C)=	-60.09
#Instrument=	LabRAM HR Evol
#Detector=	SIN-EM FIVIS
#Objective=	x50_VIS_LWD
#Grating=	150 (500nm)
#ND Filter=	100%
#Laser=	633nm_Edge
#Hole=	30.0125
#Temperature=	0
#Range=	Visible
#StageXY=	75x50mm Scan+
#StageZ=	Z motor
#X (µm)=	7377.7
#Y (µm)=	4349.7
#Z (µm)=	-28.6
#Full time(mm:ss)=	1:02
#Project=	Buranga
#Sample=	BU18FA20_C
#Site=	C_Bertoss1
#Title=	20-C_brt1_FI10
#Remark=	
#Date=	30.07.2019 14:35
#Acquired=	30.07.2019 14:35:08
#Data Range:Extract=	16.12.2021 15:36:30
#Base:Fit=	16.12.2021 15:36:40
#Base:Edit=	16.12.2021 15:37:47
#Base:Edit=	16.12.2021 15:37:49
#Base:Edit=	16.12.2021 15:37:50
#Base:Edit=	16.12.2021 15:37:51
#Base:Edit=	16.12.2021 15:37:52
#Base:Edit=	16.12.2021 15:37:52
#Base:Sub=	16.12.2021 15:37:54
100.38	395.051
103.641	356.606
106.898	308.199
110.156	272.728
113.411	238.712
116.666	213.96
119.918	189.158
123.17	164.417
126.419	142.04
129.669	122.892
132.916	106.493
136.163	96.7253
139.407	88.423
142.651	80.8206
145.892	73.557
149.134	66.6565
152.372	60.3797
155.611	51.6532
158.847	42.8304
162.083	33.7028
165.316	30.3888
168.548	41.135
171.781	38.6644
175.01	32.5697
178.239	23.3718
181.466	14.9297
184.693	12.5931
187.917	11.3728
191.139	10.0795
194.362	8.75014
197.582	7.13872
200.802	5.50731
204.02	3.70055
207.236	1.73891
210.452	-0.0269241
213.665	-1.30758
216.877	-1.20238
220.089	-1.4903
223.299	-0.24234
226.508	1.68293
229.715	4.9538
232.92	20.8865
236.126	35.4168
239.329	81.9241
242.53	127.851
245.732	126.016
248.931	98.22
252.128	66.0694
255.326	51.6625
258.521	42.4702
261.714	37.0911
264.906	35.3636
268.099	37.5685
271.288	46.2423
274.477	49.5999
277.665	65.1972
280.851	79.77
284.035	106.083
287.218	161.145
290.402	163.612
293.582	149.392
296.761	117.517
299.939	89.1969
303.117	65.6228
306.293	44.951
309.466	30.7345
312.639	23.7133
315.811	22.0562
318.982	27.4
322.151	41.5127
325.318	63.7937
328.484	120.899
331.651	169.251
334.814	186.796
337.977	157.539
341.138	111.564
344.297	75.3625
347.456	49.2409
350.614	36.9264
353.77	29.6501
356.925	28.7327
360.078	37.331
363.23	50.8195
366.381	62.504
369.53	72.4976
372.68	72.4085
375.827	67.1021
378.972	53.5549
382.116	38.9527
385.259	26.5512
388.401	16.1398
391.541	8.47169
394.681	2.82984
397.818	-0.66288
400.956	-1.95586
404.092	-0.655151
407.226	2.8287
410.359	7.94969
413.49	10.84
416.62	14.5357
419.749	19.9861
422.877	25.9702
426.003	37.5631
429.128	52.1185
432.252	69.4915
435.375	89.1974
438.496	107.416
441.616	120.25
444.735	130.792
447.852	131.787
450.969	126.447
454.084	118.65
457.197	109.9
460.31	99.5438
463.421	88.4784
466.531	77.3409
469.64	65.8519
472.747	51.5169
475.853	37.3372
478.958	26.0096
482.062	20.8577
485.164	20.4761
488.265	20.6555
491.365	21.1038
494.464	21.1136
497.561	21.4807
500.657	22.2173
503.752	23.1327
506.844	24.3394
509.937	26.2651
513.028	27.9836
516.117	31.3374
519.206	30.9891
522.293	29.7793
525.38	30.5749
528.464	30.2157
531.548	30.7945
534.63	29.176
537.71	27.0046
540.79	25.3056
543.869	23.9425
546.946	22.8472
550.022	22.0736
553.097	21.506
556.169	21.3269
559.242	21.4802
562.313	21.7982
565.383	21.3753
568.452	19.4707
571.519	17.4094
574.584	16.1785
577.649	16.0026
580.713	14.7353
583.775	16.464
586.837	21.4466
589.895	28.2877
592.954	37.6223
596.012	50.184
599.068	69.3857
602.122	97.6114
605.176	128.166
608.229	152.355
611.28	127.709
614.329	111.156
617.378	95.725
620.426	89.7318
623.473	86.5709
626.517	89.2978
629.561	93.0995
632.604	96.9627
635.644	99.7673
638.684	100.734
641.724	98.6525
644.76	93.9719
647.797	88.9588
650.833	83.713
653.867	88.7957
656.899	97.2556
659.931	108.352
662.96	115.945
665.99	114.554
669.018	104.105
672.044	87.6783
675.07	70.3621
678.095	54.9489
681.117	41.5495
684.139	31.0065
687.16	22.6924
690.179	17.2289
693.197	13.8838
696.213	11.7435
699.23	10.2738
702.245	9.53629
705.257	8.91777
708.27	8.41639
711.28	8.56736
714.29	8.90503
717.298	8.62431
720.306	8.4784
723.312	8.2328
726.316	7.36078
729.321	5.25112
732.322	5.04388
735.324	5.6633
738.323	5.87753
741.323	6.21332
744.32	6.54628
747.317	5.95638
750.311	5.728
753.306	5.92606
756.298	6.30879
759.291	6.65313
762.28	7.10623
765.27	7.53103
768.258	6.96842
771.245	6.09064
774.23	5.02182
777.215	3.80966
780.198	3.15219
783.179	2.82664
786.161	2.82332
789.14	1.29344
792.119	-0.0432816
795.096	-0.12442
798.073	1.62657
801.047	4.45958
804.021	4.96532
806.994	4.64692
809.965	4.03997
812.936	3.38235
815.904	3.15606
818.871	3.59245
821.839	4.45344
824.804	6.0015
827.769	7.73347
830.732	9.42675
833.693	10.0699
836.655	10.3175
839.614	10.2369
842.572	9.48856
845.53	8.67172
848.485	7.90479
851.44	7.21114
854.394	6.71635
857.346	6.91035
860.297	7.23611
863.248	7.94919
866.197	9.1562
869.144	8.99225
872.091	9.43856
875.037	10.5788
877.981	12.2053
880.924	14.173
883.867	15.8609
886.807	17.4463
889.746	17.3638
892.685	17.4695
895.623	17.4635
898.559	17.4855
901.493	16.9621
904.427	15.7049
907.359	14.7437
910.292	14.036
913.222	13.7766
916.151	14.362
919.078	15.4841
922.006	16.8642
924.932	18.0908
927.856	18.3756
930.779	19.0498
933.701	20.5532
936.622	23.0097
939.543	27.4726
942.461	33.4358
945.379	41.464
948.295	50.9569
951.21	62.2033
954.124	75.9036
957.037	86.9563
959.95	95.7458
962.861	102.677
965.77	107.874
968.678	113.387
971.585	122.17
974.491	135.835
977.396	156.098
980.3	178.274
983.202	190.829
986.104	232.906
989.005	312.64
991.904	376.531
994.802	437.911
997.699	402.235
1000.6	354.121
1003.49	312.314
1006.38	277.364
1009.28	249.657
1012.17	229.102
1015.06	215.797
1017.95	228.564
1020.83	242.681
1023.72	263.166
1026.61	289.995
1029.49	317.748
1032.37	321.987
1035.26	271.191
1038.14	224.799
1041.02	182.219
1043.9	135.132
1046.77	115.257
1049.65	102.769
1052.53	92.6032
1055.4	84.2249
1058.27	76.9145
1061.15	70.419
1064.02	63.3068
1066.88	57.0844
1069.75	53.0712
1072.62	51.9704
1075.49	54.0333
1078.35	60.1474
1081.22	69.5031
1084.08	79.8579
1086.94	90.4194
1089.8	98.4992
1092.66	103.954
1095.52	105.332
1098.38	108.62
1101.23	112.128
1104.09	124.371
1106.94	123.714
1109.8	109.822
1112.65	90.3443
1115.5	71.1208
1118.35	55.3511
1121.2	42.8201
1124.05	33.649
1126.89	29.6407
1129.74	28.4969
1132.58	29.672
1135.42	31.9501
1138.27	34.8786
1141.11	38.8372
1143.95	43.9651
1146.78	50.4345
1149.62	57.8613
1152.46	63.6998
1155.29	77.2155
1158.13	85.7314
1160.96	84.1237
1163.79	70.7998
1166.62	53.3659
1169.45	39.7198
1172.28	30.3181
1175.11	26.5254
1177.93	23.898
1180.76	21.9543
1183.59	20.2737
1186.41	18.6942
1189.23	16.1351
1192.05	13.2805
1194.87	10.5996
1197.69	8.28059
1200.51	5.68346
1203.32	4.08165
1206.14	2.87827
1208.95	1.98711
1211.77	1.4306
1214.58	1.14974
1217.39	0.955177
1220.2	1.27345
1223.01	1.8304
1225.82	2.50718
1228.62	3.19276
1231.43	4.05563
1234.23	4.46947
1237.04	4.10155
1239.84	3.08096
1242.64	2.18689
1245.44	1.36234
1248.24	0.401405
1251.04	-0.143944
1253.83	0.350914
1256.63	4.74406
1259.42	8.84937
1262.22	13.786
1265.01	16.6812
1267.8	16.1881
1270.59	15.8727
1273.38	14.2901
1276.17	18.5206
1278.96	20.914
1281.74	114.703
1284.53	317.793
1287.31	168.883
1290.1	41.9432
1292.88	15.2666
1295.66	11.1473
1298.44	8.82159
1301.22	7.17386
1303.99	6.18703
1306.77	5.54864
1309.55	5.37038
1312.32	5.47613
1315.09	5.71684
1317.87	5.84045
1320.64	5.62078
1323.41	5.05648
1326.18	4.55606
1328.94	4.13812
1331.71	3.76775
1334.48	3.8625
1337.24	4.12252
1340	4.60049
1342.77	5.08609
1345.53	4.88495
1348.29	3.89322
1351.05	2.82071
1353.81	2.72156
1356.56	3.45172
1359.32	4.89532
1362.08	6.00474
1364.83	7.52177
1367.58	9.65204
1370.33	12.4045
1373.09	13.2013
1375.84	13.0645
1378.58	17.6519
1381.33	23.0829
1384.08	52.7319
1386.82	330.217
1389.57	493.31
1392.31	122.403
1395.06	28.4955
1397.8	20.577
1400.54	5.47427
1403.28	8.13123
1406.02	24.5071
1408.75	33.1592
1411.49	32.8897
1414.22	22.8934
1416.96	16.3577
1419.69	13.8048
1422.42	11.6807
1425.15	9.28091
1427.88	6.91727
1430.61	4.98348
1433.34	3.76996
1436.07	2.7436
1438.79	1.94679
1441.52	1.80917
1444.24	2.03475
1446.96	2.97193
1449.69	4.25486
1452.41	4.63345
1455.13	3.97318
1457.84	1.67036
1460.56	0.295441
1463.28	-0.104332
1465.99	0.119568
1468.71	0.944511
1471.42	2.0409
1474.13	3.02985
1476.84	1.55937
1479.55	-0.502388
1482.26	-0.625267
1484.97	1.0915
1487.68	2.16418
1490.39	3.10562
1493.09	4.06761
1495.79	4.91364
1498.5	5.66396
1501.2	4.57327
1503.9	2.55223
1506.6	0.894127
1509.3	-0.171127
1512	-0.554611
1514.69	-0.0465851
1517.39	0.461502
1520.08	1.34845
1522.78	1.96097
1525.47	3.19873
1528.16	1.81968
1530.85	1.2331
1533.54	0.756432
1536.23	1.32994
1538.92	1.63805
1541.61	2.01038
1544.29	2.45922
1546.98	2.64444
1549.66	2.71708
1552.34	2.57021
1555.02	2.19338
1557.7	1.44227
1560.38	0.68343
1563.06	0.0448074
1565.74	0.61681
1568.42	1.58873
1571.09	2.71619
1573.77	3.27164
1576.44	4.10447
1579.11	4.37785
1581.78	4.57999
1584.45	4.21992
1587.12	4.55701
1589.79	5.76912
1592.46	7.0767
1595.12	7.74101
1597.79	7.40546
1600.45	6.85644
1603.12	6.30235
1605.78	5.86392
1608.44	4.86301
1611.1	4.75377
1613.76	5.16586
1616.42	6.0723
1619.08	6.85687
1621.73	7.33356
1624.39	7.57597
1627.04	7.51905
1629.7	7.1321
1632.35	6.70422
1635	6.27757
1637.65	5.88561
1640.3	5.45084
1642.95	5.04097
1645.59	4.70581
1648.24	4.44073
1650.88	4.07091
1653.53	3.84862
1656.17	3.72778
1658.82	3.6574
1661.46	3.71291
1664.1	4.42483
1666.74	5.19521
1669.37	5.71868
1672.01	6.13868
1674.65	6.27145
1677.28	5.97457
1679.92	5.70161
1682.55	5.20245
1685.18	4.76343
1687.82	4.98331
1690.44	5.61575
1693.07	6.2883
1695.7	6.90929
1698.33	6.93678
1700.96	8.03222
1703.58	8.64329
1706.21	7.83444
1708.83	6.46939
1711.45	5.1395
1714.07	4.1095
1716.69	3.33445
1719.31	2.77123
1721.93	2.38613
1724.55	2.14711
1727.17	2.2554
1729.78	2.30167
1732.4	2.96877
1735.01	4.12128
1737.62	5.57503
1740.23	5.74433
1742.85	4.64166
1745.46	3.3035
1748.07	2.29245
1750.67	1.57737
1753.28	1.71169
1755.89	2.05583
1758.49	2.48713
1761.09	2.82177
1763.7	3.04307
1766.3	3.15081
1768.9	3.30431
1771.5	3.60311
1774.1	3.9311
1776.7	4.40154
1779.29	5.04739
1781.89	5.86439
1784.49	6.53429
1787.08	6.29582
1789.67	5.53464
1792.27	4.53443
1794.86	3.85114
1797.45	3.53322
1800.04	3.69379
1802.62	4.97368
1805.21	5.7134
1807.8	6.17292
1810.38	6.34801
1812.97	6.15578
1815.55	5.67088
1818.14	4.90765
1820.72	4.00948
1823.3	3.88034
1825.88	4.13227
1828.46	4.35284
1831.03	4.55048
1833.61	4.68491
1836.19	5.54815
1838.76	6.37738
1841.34	6.75436
1843.91	6.86673
1846.48	6.5554
1849.05	5.77893
1851.62	4.94879
1854.19	3.75618
1856.76	2.38011
1859.33	1.2309
1861.89	0.480667
1864.46	0.669407
1867.02	5.66731
1869.59	5.69525
1872.15	5.15035
1874.71	3.26217
1877.27	1.92789
1879.83	1.88332
1882.39	3.06368
1884.95	5.33786
1887.51	5.86569
1890.06	5.78608
1892.62	5.59215
1895.17	5.32735
1897.72	5.057
1900.27	4.66519
1902.83	4.67194
1905.38	3.96731
1907.93	3.69843
1910.47	4.58866
1913.02	4.72412
1915.57	4.23317
1918.11	3.70567
1920.66	3.1714
1923.2	2.66918
1925.74	2.0268
1928.29	1.46525
1930.83	1.42762
1933.37	1.99718
1935.91	3.15985
1938.44	3.2623
1940.98	4.20096
1943.52	5.27263
1946.05	5.83813
1948.59	6.12126
1951.12	6.521
1953.65	6.78325
1956.18	6.83749
1958.72	6.56673
1961.25	6.15944
1963.77	5.6299
1966.3	5.53012
1968.83	5.68333
1971.35	6.60146
1973.88	6.71778
1976.4	6.36034
1978.93	5.59676
1981.45	5.36825
1983.97	5.43015
1986.49	5.46464
1989.01	5.60852
1991.53	5.81083
1994.05	5.71297
1996.56	5.17728
1999.08	4.54551
2001.59	3.9726
2004.11	3.56308
2006.62	3.26477
2009.13	3.09207
2011.64	2.92419
2014.15	1.24905
2016.66	-0.188282
2019.17	0.174923
2021.68	1.26619
2024.18	3.7981
2026.69	4.87139
2029.19	5.86877
2031.7	6.6888
2034.2	7.31551
2036.7	7.77924
2039.2	8.17994
2041.7	8.07667
2044.2	6.73279
2046.7	2.21732
2049.2	2.84953
2051.7	4.63506
2054.19	5.90982
2056.69	6.20734
2059.18	6.2438
2061.67	6.15226
2064.16	5.64152
2066.65	4.93947
2069.15	4.20022
2071.63	3.47546
2074.12	3.16644
2076.61	3.15056
2079.1	3.58585
2081.58	4.1226
2084.07	5.10485
2086.55	5.17588
2089.03	5.42489
2091.51	5.43422
2094	5.03556
2096.47	4.55837
2098.95	3.89014
2101.43	3.06389
2103.91	2.58507
2106.39	2.57964
2108.86	3.0249
2111.34	3.74764
2113.81	4.42461
2116.28	5.11321
2118.76	5.3054
2121.23	5.2439
2123.7	5.03901
2126.17	4.36946
2128.63	4.10541
2131.1	3.73827
2133.57	4.0744
2136.03	4.47425
2138.5	4.92198
2140.96	5.28811
2143.43	4.65984
2145.89	4.10577
2148.35	3.64177
2150.81	3.60208
2153.27	3.90708
2155.73	2.61422
2158.18	1.52256
2160.64	1.29618
2163.1	0.844414
2165.55	0.786915
2168	1.40372
2170.46	2.54213
2172.91	4.54294
2175.36	4.39994
2177.81	5.15208
2180.26	5.91807
2182.71	5.65354
2185.16	5.38342
2187.6	5.40596
2190.05	5.86315
2192.5	6.78559
2194.94	2.50006
2197.38	-0.0294075
2199.83	-3.07378
2202.27	-0.0152512
2204.71	3.66527
2207.15	5.74729
2209.59	5.61169
2212.02	5.62321
2214.46	5.51036
2216.9	4.34687
2219.33	3.79478
2221.77	4.0133
2224.2	3.90565
2226.64	3.69739
2229.07	3.55456
2231.5	3.85963
2233.93	4.17457
2236.36	4.47368
2238.79	4.53069
2241.21	4.56106
2243.64	4.19979
2246.06	3.87899
2248.49	3.6188
2250.91	3.8067
2253.34	4.05559
2255.76	3.04406
2258.18	1.93521
2260.6	1.60867
2263.02	2.19207
2265.44	3.32521
2267.86	4.27184
2270.27	4.92067
2272.69	5.02708
2275.11	4.81564
2277.52	4.41885
2279.93	3.98244
2282.35	3.0703
2284.76	1.64365
2287.17	0.644318
2289.58	0.612488
2291.99	1.79349
2294.4	3.05389
2296.8	4.38988
2299.21	5.54555
2301.62	6.0878
2304.02	5.79184
2306.43	5.24219
2308.83	4.70299
2311.23	4.40859
2313.63	4.2969
2316.03	4.50753
2318.43	5.24157
2320.83	6.21842
2323.23	7.14199
2325.63	8.0639
2328.02	9.62898
2330.42	10.7615
2332.81	9.07053
2335.21	7.97307
2337.6	6.74363
2339.99	5.54406
2342.38	6.58079
2344.77	7.63731
2347.16	8.09195
2349.55	8.38503
2351.94	7.50137
2354.32	5.93107
2356.71	4.27257
2359.1	2.50084
2361.48	2.0187
2363.86	1.73871
2366.25	1.53672
2368.63	1.91123
2371.01	2.34579
2373.39	2.08418
2375.77	1.62361
2378.15	1.09942
2380.52	0.972313
2382.9	1.86318
2385.28	2.22915
2387.65	2.28922
2390.03	2.46153
2392.4	2.79225
2394.77	3.30547
2397.14	3.50852
2399.51	3.40036
2401.88	2.52432
2404.25	0.814159
2406.62	-0.442265
2408.99	0.128201
2411.35	1.83386
2413.72	3.56735
2416.08	3.20189
2418.45	3.04116
2420.81	3.30656
2423.17	4.239
2425.53	4.34094
2427.89	3.71895
2430.25	3.43398
2432.61	3.30992
2434.97	2.93464
2437.33	2.3918
2439.69	2.45363
2442.04	2.8672
2444.4	3.44158
2446.75	4.1253
2449.1	5.07248
2451.45	5.21888
2453.81	3.73614
2456.16	2.45873
2458.51	1.51904
2460.85	1.0993
2463.2	0.920868
2465.55	1.15193
2467.9	2.10024
2470.24	3.3525
2472.59	4.65025
2474.93	5.03031
2477.27	4.01731
2479.62	2.7634
2481.96	1.8511
2484.3	1.65131
2486.64	1.78687
2488.98	2.60978
2491.31	2.676
2493.65	2.78441
2495.99	2.85278
2498.32	2.81416
2500.66	2.62822
2502.99	2.28455
2505.32	1.68851
2507.66	0.956505
2509.99	0.0835533
2512.32	-0.0530586
2514.65	0.638443
2516.98	1.41941
2519.31	2.00962
2521.63	2.43718
2523.96	2.71205
2526.28	2.94199
2528.61	2.79591
2530.93	1.7026
2533.26	1.11938
2535.58	1.03431
2537.9	1.1428
2540.22	1.04356
2542.54	2.4848
2544.86	3.94351
2547.18	5.31138
2549.5	6.0856
2551.81	6.46341
2554.13	6.45087
2556.44	5.96173
2558.76	5.23252
2561.07	3.47434
2563.38	1.9123
2565.69	0.00959015
2568.01	-0.976234
2570.32	0.811073
2572.62	1.99454
2574.93	2.23942
2577.24	3.43769
2579.55	4.66133
2581.85	4.82295
2584.16	4.63025
2586.46	4.30875
2588.77	3.8848
2591.07	3.54156
2593.37	3.26075
2595.67	3.15931
2597.97	3.05016
2600.27	3.20214
2602.57	3.46687
2604.87	3.28242
2607.17	3.03358
2609.46	4.13197
2611.76	5.44905
2614.05	5.06152
2616.35	3.03285
2618.64	2.50455
2620.93	2.69591
2623.22	3.383
2625.51	4.13846
2627.8	4.76413
2630.09	4.38187
2632.38	4.13381
2634.67	4.31304
2636.96	4.74193
2639.24	4.84739
2641.53	4.56684
2643.81	4.21381
2646.09	3.7892
2648.38	3.41209
2650.66	2.94048
2652.94	2.07338
2655.22	1.27848
2657.5	0.33466
2659.78	-0.395634
2662.06	-0.450314
2664.33	0.10677
2666.61	1.1937
2668.88	2.38147
2671.16	3.33201
2673.43	4.08547
2675.71	5.05177
2677.98	6.15369
2680.25	6.61211
2682.52	6.6525
2684.79	6.51944
2687.06	6.27173
2689.33	5.92395
2691.6	5.09624
2693.86	4.07268
2696.13	3.60958
2698.39	3.92847
2700.66	3.57305
2702.92	2.78054
2705.18	1.93234
2707.45	0.871212
2709.71	-1.248
2711.97	-0.989559
2714.23	-0.0924034
2716.49	0.99691
2718.74	2.21096
2721	3.1111
2723.26	3.89331
2725.51	4.44294
2727.77	5.0329
2730.02	5.1027
2732.28	5.45372
2734.53	5.55337
2736.78	5.09307
2739.03	3.79372
2741.28	2.98021
2743.53	2.94705
2745.78	3.46373
2748.03	4.04488
2750.27	4.70192
2752.52	5.63436
2754.77	6.35839
2757.01	6.66608
2759.26	7.00866
2761.5	7.2617
2763.74	7.41708
2765.98	6.57075
2768.22	5.79979
2770.46	5.32056
2772.7	4.80429
2774.94	3.29062
2777.18	2.20358
2779.42	2.07291
2781.65	1.52315
2783.89	1.39361
2786.12	2.30511
2788.36	3.14522
2790.59	3.396
2792.82	3.55484
2795.05	3.47176
2797.28	3.742
2799.51	4.43084
2801.74	4.82919
2803.97	2.95884
2806.2	0.767113
2808.43	1.41224
2810.65	2.46844
2812.88	4.0372
2815.1	4.22023
2817.33	0.852665
2819.55	-1.62935
2821.77	-1.46481
2823.99	-0.531174
2826.21	0.926994
2828.43	1.43094
2830.65	1.98377
2832.87	-0.551792
2835.09	-0.127129
2837.3	4.15518
2839.52	5.06278
2841.74	3.89215
2843.95	2.77227
2846.17	2.27294
2848.38	2.70471
2850.59	1.76211
2852.8	0.911919
2855.01	0.781734
2857.22	0.971233
2859.43	1.6053
2861.64	2.10112
2863.85	2.35673
2866.06	2.83174
2868.26	3.07857
2870.47	3.7551
2872.67	4.22385
2874.88	3.59561
2877.08	3.27842
2879.28	3.33363
2881.48	3.77431
2883.68	4.23404
2885.89	5.24042
2888.08	5.74742
2890.28	6.12679
2892.48	5.29312
2894.68	3.98653
2896.87	2.54442
2899.07	1.88907
2901.26	1.05595
2903.46	0.63929
2905.65	0.475372
2907.85	0.763279
2910.04	0.10508
2912.23	2.41383
2914.42	3.3139
2916.61	3.36512
2918.8	1.64555
2920.98	1.25349
2923.17	1.118
2925.36	1.51408
2927.54	1.63981
2929.73	0.938816
2931.91	0.757252
2934.1	0.717888
2936.28	0.392147
2938.46	-0.172291
2940.64	0.142197
2942.82	0.7673
2945	2.08873
2947.18	3.33391
2949.36	3.27561
2951.54	3.09312
2953.72	2.54564
2955.89	2.05386
2958.07	2.02174
2960.24	2.92535
2962.42	2.5808
2964.59	2.19191
2966.76	2.31384
2968.93	2.90802
2971.1	3.48204
2973.27	4.08342
2975.44	3.66961
2977.61	2.96058
2979.78	1.73879
2981.95	0.863918
2984.11	0.679966
2986.28	0.907227
2988.45	-1.2754
2990.61	-0.384319
2992.77	1.37736
2994.94	3.84786
2997.1	4.45356
2999.26	4.02283
3001.42	3.62885
3003.58	3.29161
3005.74	2.93375
3007.9	2.27206
3010.06	1.64755
3012.21	1.76955
3014.37	1.94513
3016.52	2.54517
3018.68	2.28324
3020.83	2.12205
3022.99	2.03286
3025.14	2.14629
3027.29	2.48376
3029.44	2.79394
3031.59	2.57302
3033.74	2.28875
3035.89	1.92848
3038.04	1.43485
3040.19	0.859489
3042.33	-0.279411
3044.48	0.526112
3046.62	1.75302
3048.77	1.86599
3050.91	2.00441
3053.05	1.76601
3055.2	1.69167
3057.34	1.76648
3059.48	2.51671
3061.62	2.39607
3063.76	2.47422
3065.9	3.56545
3068.03	2.98343
3070.17	3.23865
3072.31	3.54188
3074.44	4.36136
3076.58	5.28283
3078.71	6.16127
3080.85	4.26709
3082.98	2.12234
3085.11	0.824615
3087.24	0.707321
3089.37	2.03448
3091.5	3.12605
3093.63	3.41619
3095.76	3.6428
3097.89	3.63202
3100.02	3.76361
3102.14	3.69798
3104.27	4.19022
3106.39	3.87556
3108.52	4.16978
3110.64	4.80466
3112.76	5.08368
3114.89	3.39143
3117.01	2.7527
3119.13	4.34665
3121.25	6.23244
3123.37	4.37805
3125.49	4.35514
3127.6	5.3435
3129.72	6.03389
3131.84	6.22234
3133.95	6.71499
3136.07	4.08613
3138.18	5.36583
3140.29	6.88279
3142.41	8.42788
3144.52	7.84625
3146.63	7.39051
3148.74	6.6165
3150.85	5.55873
3152.96	5.20813
3155.07	6.20083
3157.18	6.19876
3159.28	5.94065
3161.39	5.66908
3163.5	5.69324
3165.6	5.24583
3167.71	6.19489
3169.81	6.87312
3171.91	6.77732
3174.01	6.68943
3176.12	7.49236
3178.22	8.56132
3180.32	9.43168
3182.42	10.0382
3184.51	9.89779
3186.61	9.51312
3188.71	9.21402
3190.8	7.68191
3192.9	4.91343
3195	7.29615
3197.09	7.82939
3199.18	6.73548
3201.28	6.96106
3203.37	7.75474
3205.46	10.7556
3207.55	11.0684
3209.64	10.7548
3211.73	10.4509
