#Acq. time (s)=	60
#Accumulations=	4
#Range (cm-¹)=	100...4000
#Windows=	1
#Auto scanning=	Off
#Autofocus=	Off
#Macrospot=	Off
#AutoExposure=	Off
#Spike filter=	Multiple accum.
#Delay time (s)=	2
#Binning=	1
#Readout mode=	Signal
#DeNoise=	Off
#ICS correction=	On
#Dark correction=	Off
#Inst. Process=	Off
#Detector Gain=	Best Dynamic
#Detector ADC=	50 kHz HS
#Detector temperature (°C)=	-60.09
#Instrument=	LabRAM HR Evol
#Detector=	SIN-EM FIVIS
#Objective=	x100_VIS_LWD
#Grating=	150 (500nm)
#ND Filter=	100%
#Laser=	633nm_Edge
#Hole=	30.0125
#Temperature=	39.9
#Range=	Visible
#StageXY=	75x50mm Scan+
#StageZ=	Z motor
#X (µm)=	0
#Y (µm)=	0
#Z (µm)=	-0.2
#Full time(mm:ss)=	4:05
#Project=	21_08_11
#Sample=	BU20
#Site=	
#Title=	BU20-B-FF4-FI03-L_150 (500nm)_633nm_Edge_100%_x100_VIS_LWD_H30um_60sX4
#Remark=	
#Date=	13.08.2021 14:27
#Acquired=	13.08.2021 14:27:06
#Data Range:Extract=	16.12.2021 15:36:30
#Base:Fit=	16.12.2021 15:36:40
#Base:Edit=	16.12.2021 15:53:13
#Base:Edit=	16.12.2021 15:53:14
#Base:Edit=	16.12.2021 15:53:15
#Base:Edit=	16.12.2021 15:53:16
#Base:Edit=	16.12.2021 15:53:17
#Base:Sub=	16.12.2021 15:53:21
100.12	84.5963
103.379	86.2481
106.638	79.3376
109.896	81.9735
113.152	66.4596
116.407	65.2511
119.66	55.4058
122.912	53.5323
126.162	48.1258
129.412	49.42
132.659	45.8964
135.906	40.7675
139.151	42.3043
142.396	45.1232
145.637	34.2376
148.878	26.8463
152.118	30.9519
155.356	28.3698
158.594	33.7587
161.829	21.2704
165.064	27.2981
168.297	17.972
171.529	15.9774
174.759	15.5581
177.989	10.9587
181.216	13.3736
184.441	15.7478
187.667	12.3642
190.89	0.0316467
194.114	3.32944
197.334	4.71947
200.553	2.63657
203.772	9.83167
206.989	2.05037
210.205	5.07499
213.419	3.32528
216.631	3.8037
219.844	7.4501
223.054	24.4303
226.262	35.6538
229.471	68.0707
232.677	91.2791
235.881	79.2906
239.086	56.2309
242.288	36.9923
245.488	24.788
248.689	24.5895
251.887	18.3633
255.083	23.2048
258.28	28.6893
261.474	43.0269
264.667	47.5583
267.858	57.1523
271.05	76.5526
274.238	100.064
277.426	112.83
280.613	119.563
283.798	115.527
286.982	86.8338
290.164	56.8719
293.346	42.068
296.526	30.1189
299.704	18.4932
302.881	16.644
306.058	13.2127
309.233	11.6773
312.406	19.5888
315.577	43.86
318.749	57.4145
321.918	90.8096
325.086	106.585
328.253	88.7029
331.418	65.8119
334.584	36.3112
337.746	25.3597
340.908	23.2104
344.068	15.0846
347.227	16.3714
350.384	24.2584
353.542	24.5829
356.697	31.4903
359.851	42.1482
363.003	41.1865
366.154	46.1758
369.304	33.6185
372.452	27.022
375.601	11.6589
378.747	11.331
381.892	9.43584
385.035	3.50723
388.177	4.80319
391.318	-0.133728
394.457	0.260551
397.596	-0.270958
400.733	7.07371
403.868	5.92889
407.004	4.15733
410.137	8.03611
413.269	11.902
416.4	14.799
419.529	16.7748
422.657	29.7425
425.784	36.3487
428.91	52.9164
432.034	66.6018
435.157	68.6196
438.279	69.6804
441.399	71.3656
444.518	71.1527
447.636	61.2266
450.753	65.3647
453.868	58.5961
456.982	53.7311
460.095	41.4411
463.207	27.6517
466.317	19.8139
469.426	20.3618
472.534	16.2767
475.64	14.387
478.746	12.8206
481.85	7.51359
484.952	8.72598
488.054	7.76267
491.154	11.7709
494.253	11.4352
497.351	7.98222
500.447	8.88509
503.541	10.7297
506.635	11.9474
509.728	8.1932
512.819	5.37667
515.91	9.71634
518.999	8.47189
522.086	9.11034
525.173	4.45074
528.258	5.10229
531.342	5.45433
534.423	9.26141
537.505	5.23605
540.585	8.08286
543.664	4.0086
546.742	6.8252
549.819	5.82871
552.894	7.99726
555.966	9.52124
559.039	7.22656
562.111	8.35327
565.181	9.78272
568.25	6.15993
571.317	9.73854
574.383	7.34002
577.449	5.87283
580.513	8.15938
583.576	12.9548
586.636	24.5883
589.697	30.6229
592.756	52.5342
595.814	72.2541
598.871	70.5986
601.925	60.3218
604.979	45.7121
608.032	43.2173
611.084	41.6757
614.133	37.6446
617.183	43.9516
620.231	55.8932
623.277	51.6097
626.322	46.0708
629.367	49.8563
632.41	46.9992
635.451	44.3983
638.492	41.1202
641.532	39.6932
644.569	40.0941
647.606	39.9063
650.642	57.565
653.675	62.3049
656.709	65.4542
659.741	58.6063
662.771	53.6412
665.801	42.479
668.829	30.4097
671.856	26.5021
674.882	23.9215
677.907	14.7819
680.929	10.9263
683.952	6.78989
686.972	5.14754
689.992	1.03785
693.011	5.65986
696.028	-0.320679
699.045	3.9934
702.059	5.8086
705.073	7.30757
708.086	3.46786
711.096	-0.397003
714.107	4.13104
717.115	3.97884
720.123	0.0553284
723.129	0.846024
726.135	1.60396
729.139	-0.155132
732.141	1.20988
735.143	4.75626
738.143	3.92935
741.143	5.59916
744.14	3.84464
747.138	1.48109
750.133	2.54113
753.128	1.76086
756.12	2.21388
759.113	8.30606
762.103	-0.806335
765.093	7.52563
768.081	0.297131
771.069	1.47877
774.054	2.97922
777.04	0.398754
780.023	2.50049
783.005	1.45271
785.987	3.53171
788.966	3.40773
791.946	0.444618
794.923	2.81154
797.9	3.90888
800.875	2.15812
803.848	2.91234
806.822	4.59733
809.793	1.57236
812.765	8.56726
815.733	1.75759
818.701	4.6535
821.669	6.28955
824.634	5.73185
827.6	7.66769
830.563	7.7537
833.525	8.50761
836.487	5.85349
839.446	6.96407
842.404	6.54978
845.363	6.11386
848.319	7.87722
851.273	5.27137
854.228	3.60323
857.181	6.01231
860.132	10.3153
863.083	3.62267
866.032	12.3417
868.98	8.78384
871.927	14.0379
874.874	5.69202
877.818	12.8081
880.761	12.6525
883.704	8.68884
886.645	5.02662
889.585	10.5261
892.523	11.903
895.462	9.47916
898.398	8.92714
901.333	7.72217
904.267	7.77432
907.2	8.14002
910.133	13.525
913.063	13.2493
915.992	14.8576
918.92	13.6802
921.849	10.3242
924.774	17.6433
927.699	22.1573
930.622	24.8412
933.545	19.9868
936.466	32.1288
939.387	33.0215
942.306	40.8557
945.224	46.8259
948.141	56.9494
951.056	65.2048
953.97	66.1736
956.884	73.1698
959.797	69.9639
962.708	71.1969
965.617	82.9284
968.526	90.8502
971.434	98.4198
974.34	121.319
977.245	140.318
980.149	166.253
983.052	182.849
985.955	207.375
988.856	207.591
991.755	186.427
994.654	163.376
997.551	144.208
1000.45	132.09
1003.34	119.372
1006.24	131.807
1009.13	130.937
1012.02	136.53
1014.91	154.536
1017.8	175.726
1020.69	192.83
1023.57	194.116
1026.46	178.555
1029.35	144.443
1032.23	109.293
1035.11	93.9295
1037.99	71.1534
1040.87	65.654
1043.75	57.2378
1046.63	55.2507
1049.51	51.282
1052.38	46.964
1055.26	40.3608
1058.13	39.552
1061	35.8042
1063.88	36.5673
1066.74	39.8771
1069.61	39.6367
1072.48	41.9829
1075.35	45.935
1078.21	54.7223
1081.08	57.3525
1083.94	52.8715
1086.8	55.5004
1089.67	64.932
1092.53	72.4112
1095.38	82.4731
1098.24	78.644
1101.1	72.8906
1103.95	56.8396
1106.81	39.2364
1109.66	36.7439
1112.51	27.2116
1115.36	22.8908
1118.22	23.7447
1121.06	29.4395
1123.91	17.2676
1126.76	23.5972
1129.6	24.4237
1132.45	23.2896
1135.29	25.0939
1138.13	30.1611
1140.98	38.5238
1143.81	36.7266
1146.65	46.6937
1149.49	55.3812
1152.33	57.1506
1155.16	46.4151
1158	37.9482
1160.83	28.8079
1163.66	20.6212
1166.49	19.0042
1169.32	11.1752
1172.15	12.8347
1174.98	15.1407
1177.81	10.916
1180.63	9.64457
1183.46	13.9178
1186.28	6.49658
1189.1	8.8532
1191.93	8.60929
1194.75	7.09008
1197.56	5.89331
1200.38	10.92
1203.2	3.88819
1206.02	7.31457
1208.83	4.53242
1211.64	8.63613
1214.46	4.53674
1217.27	6.69594
1220.08	5.2301
1222.89	6.41287
1225.69	3.27777
1228.5	1.45702
1231.31	5.9649
1234.11	5.46083
1236.92	4.27542
1239.72	8.4446
1242.52	8.90715
1245.32	4.98309
1248.12	10.1287
1250.92	5.83343
1253.72	2.21031
1256.51	4.9636
1259.31	6.69436
1262.1	7.39825
1264.89	8.44032
1267.69	7.4668
1270.48	7.82747
1273.27	8.84794
1276.05	6.18082
1278.84	7.52958
1281.63	9.88034
1284.41	6.55853
1287.2	4.24972
1289.98	1.95007
1292.76	11.6557
1295.55	5.37757
1298.33	3.77105
1301.1	3.83387
1303.88	4.58019
1306.66	6.67404
1309.43	5.44869
1312.21	4.91078
1314.98	6.04689
1317.76	5.51228
1320.53	5.31658
1323.3	6.471
1326.07	0.890778
1328.84	3.0609
1331.6	5.23974
1334.37	2.32627
1337.13	4.83725
1339.9	3.94585
1342.66	5.42094
1345.42	5.18637
1348.18	2.2145
1350.94	5.04523
1353.7	4.79674
1356.46	4.53981
1359.22	4.61778
1361.97	2.28976
1364.73	5.77548
1367.48	9.25266
1370.23	8.27296
1372.98	14.1398
1375.73	14.1866
1378.48	13.8887
1381.23	4.34895
1383.98	2.34009
1386.72	5.46319
1389.47	3.45468
1392.21	3.50962
1394.95	6.99242
1397.7	-2.84252
1400.44	3.4013
1403.18	5.19757
1405.92	5.28462
1408.65	3.65788
1411.39	7.53075
1414.13	5.56585
1416.86	4.97907
1419.59	3.00969
1422.32	4.49199
1425.06	4.59816
1427.79	3.66419
1430.52	1.69093
1433.24	3.52704
1435.97	2.58741
1438.7	4.42795
1441.42	3.48078
1444.15	4.98273
1446.87	4.73146
1449.59	4.46782
1452.31	5.59191
1455.03	3.21244
1457.75	0.121769
1460.47	2.27533
1463.19	2.67325
1465.9	2.01714
1468.62	5.55821
1471.33	8.04959
1474.04	3.89549
1476.75	0.446667
1479.46	6.10169
1482.17	4.75771
1484.88	2.71775
1487.59	4.88437
1490.3	2.50206
1493	4.33066
1495.7	5.81828
1498.41	1.33449
1501.11	1.06905
1503.81	1.50817
1506.51	-0.163261
1509.21	5.22752
1511.91	3.91614
1514.61	0.482662
1517.3	1.65059
1520	2.47017
1522.69	0.8008
1525.39	4.12114
1528.08	6.01857
1530.77	1.4896
1533.46	4.11737
1536.15	0.640594
1538.83	5.40908
1541.52	3.35011
1544.21	6.31412
1546.89	4.21437
1549.58	1.73933
1552.26	2.85734
1554.94	1.79651
1557.62	0.731598
1560.3	6.15453
1562.98	2.94034
1565.66	5.47996
1568.33	2.9854
1571.01	5.87996
1573.69	5.18333
1576.36	7.36304
1579.03	5.96922
1581.7	4.93518
1584.38	5.69883
1587.04	11.4905
1589.71	4.72289
1592.38	0.82933
1595.05	4.12329
1597.71	3.47195
1600.38	5.69879
1603.04	7.93777
1605.7	8.38213
1608.37	7.39461
1611.03	6.05013
1613.68	6.52197
1616.34	5.54994
1619	6.03233
1621.66	2.50985
1624.31	8.45868
1626.97	8.94572
1629.62	8.33508
1632.27	5.88375
1634.93	8.92474
1637.58	7.54935
1640.23	3.92693
1642.88	7.3111
1645.52	9.22795
1648.17	8.92823
1650.81	8.99292
1653.46	5.73123
1656.1	7.63194
1658.75	1.39804
1661.39	10.3129
1664.03	8.87945
1666.67	3.00517
1669.31	0.826866
1671.94	5.67159
1674.58	7.92844
1677.22	6.11212
1679.85	6.14975
1682.48	3.95797
1685.12	6.19463
1687.75	5.10692
1690.38	5.86918
1693.01	1.47195
1695.64	5.93941
1698.26	5.2546
1700.89	3.11393
1703.52	5.48158
1706.14	2.26394
1708.77	3.49703
1711.39	6.08101
1714.01	1.65672
1716.63	2.84219
1719.25	5.55622
1721.87	6.74855
1724.49	4.94385
1727.1	5.39462
1729.72	5.47157
1732.34	4.05102
1734.95	5.99915
1737.56	1.57133
1740.18	6.5231
1742.79	1.33495
1745.4	2.90932
1748.01	5.98618
1750.61	3.78793
1753.22	2.71489
1755.83	3.14663
1758.43	3.9479
1761.04	3.61219
1763.64	2.14438
1766.24	4.45332
1768.84	6.38753
1771.44	3.03571
1774.04	2.7055
1776.64	2.00173
1779.24	0.54623
1781.84	0.228371
1784.43	3.7005
1787.02	1.49321
1789.62	5.36338
1792.21	4.29999
1794.8	5.89928
1797.39	1.78964
1799.98	2.635
1802.57	2.71743
1805.16	3.56675
1807.75	0.199486
1810.33	5.25402
1812.92	3.7934
1815.5	1.17664
1818.08	5.8651
1820.67	2.08756
1823.25	3.70288
1825.83	0.303926
1828.41	3.0804
1830.98	3.15745
1833.56	3.2331
1836.14	1.76291
1838.71	2.99627
1841.29	5.00635
1843.86	0.0163021
1846.43	2.41318
1849	2.47386
1851.58	2.14626
1854.14	2.19568
1856.71	0.694578
1859.28	-1.19885
1861.85	4.34137
1864.41	3.62558
1866.98	-0.220688
1869.54	2.19583
1872.1	2.25529
1874.67	3.48905
1877.23	3.54583
1879.79	-1.12232
1882.35	0.504055
1884.9	4.88336
1887.46	6.11618
1890.02	2.21268
1892.57	1.8524
1895.13	3.85583
1897.68	5.47017
1900.23	-0.00453377
1902.79	3.60382
1905.34	0.9049
1907.89	4.5265
1910.43	0.251089
1912.98	2.31449
1915.53	2.80152
1918.07	6.06541
1920.62	1.72748
1923.16	3.38033
1925.71	4.64118
1928.25	0.717348
1930.79	2.37672
1933.33	6.43674
1935.87	3.69896
1938.41	4.15747
1940.94	-0.195072
1943.48	3.0621
1946.02	3.91306
1948.55	0.750034
1951.08	1.59391
1953.62	4.84489
1956.15	5.68552
1958.68	0.900803
1961.21	8.96959
1963.74	4.98428
1966.27	3.40777
1968.79	5.44057
1971.32	1.84708
1973.85	3.87501
1976.37	3.49462
1978.89	3.91673
1981.42	1.52969
1983.94	-0.454147
1986.46	4.37963
1988.98	5.60508
1991.5	-3.18882
1994.01	3.24878
1996.53	1.27205
1999.05	2.90429
2001.56	5.33986
2004.08	1.3663
2006.59	2.20583
2009.1	3.84841
2011.61	3.49079
2014.12	3.53235
2016.63	3.57478
2019.14	3.61095
2021.65	2.44516
2024.16	8.11794
2026.66	4.95186
2029.17	2.99206
2031.67	7.47935
2034.17	-0.118559
2036.68	2.35855
2039.18	8.88138
2041.68	4.90298
2044.18	4.1562
2046.68	2.19358
2049.17	6.31344
2051.67	5.16027
2054.17	2.36269
2056.66	3.64296
2059.15	5.33537
2061.65	4.99269
2064.14	5.87375
2066.63	3.07981
2069.12	6.00377
2071.61	8.52418
2074.1	7.77034
2076.59	5.7811
2079.07	4.19732
2081.56	5.89803
2084.04	3.07118
2086.53	5.17832
2089.01	1.10348
2091.49	3.62881
2093.97	0.383022
2096.46	5.81455
2098.94	2.98268
2101.41	0.974085
2103.89	6.8432
2106.37	3.17658
2108.84	5.74045
2111.32	4.98142
2113.79	6.72609
2116.26	5.13369
2118.74	6.88369
2121.21	4.8661
2123.68	3.68019
2126.15	7.95383
2128.62	1.71426
2131.09	6.41398
2133.55	3.94868
2136.02	4.85506
2138.48	2.37747
2140.95	2.8571
2143.41	-0.901928
2145.87	6.78488
2148.33	7.68671
2150.79	4.75924
2153.25	7.77976
2155.71	0.587934
2158.17	4.88099
2160.63	3.63806
2163.08	4.94702
2165.54	3.69619
2167.99	3.72054
2170.45	2.46957
2172.9	5.06089
2175.35	0.401724
2177.8	5.55126
2180.25	0.879704
2182.7	3.03466
2185.15	2.19656
2187.59	5.20388
2190.04	4.80126
2192.49	6.10983
2194.93	3.57685
2197.38	7.45578
2199.82	4.07665
2202.26	4.97385
2204.7	5.44747
2207.14	3.35359
2209.58	4.69019
2212.02	6.03194
2214.46	4.79769
2216.89	5.28604
2219.33	2.32909
2221.76	2.38513
2224.2	3.73697
2226.63	8.11992
2229.06	7.74948
2231.49	5.20937
2233.92	6.57059
2236.35	6.63043
2238.78	4.07817
2241.21	7.18472
2243.64	3.75412
2246.06	4.68458
2248.49	4.74166
2250.91	4.79786
2253.34	4.41406
2255.76	1.83363
2258.18	2.76721
2260.6	2.82089
2263.02	3.31222
2265.44	3.35888
2267.86	5.16926
2270.27	0.7899
2272.69	4.80646
2275.11	2.62763
2277.52	6.20249
2279.94	5.34575
2282.35	4.48326
2284.76	4.05948
2287.17	0.528448
2289.58	4.98107
2291.99	2.77987
2294.4	3.23938
2296.81	3.25826
2299.21	6.83334
2301.62	4.19573
2304.03	2.89358
2306.43	1.59486
2308.83	6.08247
2311.24	5.68275
2313.64	2.16138
2316.04	4.88688
2318.44	1.36267
2320.84	4.0952
2323.24	2.35127
2325.63	2.85067
2328.03	6.49699
2330.43	1.60321
2332.82	5.26259
2335.21	4.41895
2337.61	5.38227
2340	4.53699
2342.39	5.507
2344.78	5.11767
2347.17	2.00195
2349.56	3.88444
2351.95	3.94682
2354.33	5.37717
2356.72	5.88833
2359.11	4.56385
2361.49	5.05724
2363.87	0.962471
2366.26	2.38137
2368.64	3.34199
2371.02	6.6091
2373.4	7.11147
2375.78	0.220127
2378.16	3.95479
2380.54	1.20625
2382.91	6.32754
2385.29	2.64128
2387.66	4.05164
2390.04	8.70569
2392.41	1.75901
2394.78	6.87288
2397.16	0.381989
2399.53	0.850807
2401.9	3.17635
2404.27	1.32135
2406.64	4.10688
2409	5.97446
2411.37	3.21791
2413.73	2.32586
2416.1	3.78705
2418.46	2.94876
2420.83	3.94533
2423.19	3.04148
2425.55	3.99662
2427.91	0.282171
2430.27	5.01861
2432.63	5.06426
2434.99	4.64221
2437.35	0.917418
2439.7	4.7429
2442.06	4.31834
2444.41	3.41819
2446.77	4.4148
2449.12	3.98802
2451.47	6.41723
2453.83	3.60465
2456.18	7.47064
2458.53	1.78209
2460.88	1.34492
2463.22	3.30558
2465.57	2.86782
2467.92	8.68091
2470.26	-0.906176
2472.61	0.572901
2474.95	2.53933
2477.3	2.57843
2479.64	4.06893
2481.98	4.59116
2484.32	1.22982
2486.66	3.20107
2489	0.799616
2491.34	3.74717
2493.67	3.28925
2496.01	13.5659
2498.35	2.86059
2500.68	3.86486
2503.02	3.89106
2505.35	1.46718
2507.68	4.91848
2510.01	3.46844
2512.34	1.52334
2514.67	-0.917013
2517	6.46699
2519.33	5.99738
2521.66	5.03725
2523.99	2.10409
2526.31	4.09352
2528.64	3.12733
2530.96	3.14635
2533.28	7.12223
2535.61	2.20441
2537.93	4.70426
2540.25	6.21881
2542.57	7.73671
2544.89	4.29216
2547.21	4.32356
2549.53	1.86414
2551.84	9.3652
2554.16	0.919788
2556.47	2.93743
2558.79	1.45929
2561.1	3.98619
2563.42	3.01289
2565.73	1.54075
2568.04	3.5785
2570.35	4.11604
2572.66	4.65437
2574.97	5.19233
2577.27	4.71961
2579.58	3.73687
2581.89	3.25414
2584.19	5.29242
2586.5	2.26915
2588.8	1.26492
2591.1	1.26411
2593.41	6.34311
2595.71	3.31478
2598.01	-0.219891
2600.31	3.34893
2602.61	3.87001
2604.91	4.39018
2607.2	4.90961
2609.5	2.88281
2611.8	6.45168
2614.09	0.850546
2616.38	2.89315
2618.68	4.94071
2620.97	-1.1788
2623.26	4.44232
2625.55	4.96238
2627.84	1.39456
2630.13	3.45694
2632.42	3.48095
2634.71	2.99563
2637	0.462215
2639.28	2.0416
2641.57	3.62259
2643.85	5.21127
2646.14	4.22334
2648.42	2.70934
2650.7	5.85664
2652.98	3.82284
2655.26	3.32591
2657.54	0.222662
2659.82	1.27784
2662.1	2.33238
2664.38	4.42793
2666.65	0.784176
2668.93	2.88801
2671.2	2.90522
2673.48	3.45667
2675.75	1.92307
2678.02	1.97804
2680.29	5.20687
2682.57	2.63115
2684.84	0.572659
2687.1	2.21713
2689.37	3.33528
2691.64	3.91569
2693.91	5.03113
2696.17	1.83446
2698.44	3.99361
2700.7	1.34387
2702.97	5.11176
2705.23	1.91631
2707.49	5.15287
2709.76	-2.34686
2712.02	3.57574
2714.28	4.13238
2716.53	0.930374
2718.79	-0.132654
2721.05	4.74084
2723.31	3.1381
2725.56	4.76981
2727.82	1.53539
2730.07	-2.24738
2732.33	2.08094
2734.58	0.460079
2736.83	3.16757
2739.08	3.70796
2741.33	3.71573
2743.58	2.63872
2745.83	5.36427
2748.08	3.20681
2750.33	-0.036459
2752.57	2.72553
2754.82	3.29856
2757.06	-1.0498
2759.31	-0.491709
2761.55	2.79656
2763.79	2.813
2766.04	3.38066
2768.28	4.49967
2770.52	5.0645
2772.76	1.24138
2775	5.66644
2777.23	4.59908
2779.47	2.97797
2781.71	2.46856
2783.94	0.847052
2786.18	0.885693
2788.41	-0.743593
2790.65	2.07133
2792.88	0.99321
2795.11	0.468327
2797.34	-0.0636883
2799.57	3.31992
2801.8	0.54579
2804.03	0.00617409
2806.26	-0.53686
2808.48	1.72742
2810.71	1.74488
2812.94	1.76118
2815.16	1.20906
2817.38	5.16705
2819.61	2.92585
2821.83	4.63463
2824.05	3.52229
2826.27	-0.985573
2828.49	2.98891
2830.71	2.43653
2832.93	6.41771
2835.15	1.89302
2837.37	-0.933737
2839.58	5.32569
2841.8	-1.48179
2844.01	4.78801
2846.23	-0.886219
2848.44	1.40907
2850.65	3.7116
2852.87	0.31163
2855.08	7.20158
2857.29	6.09203
2859.5	0.964649
2861.71	2.7181
2863.91	3.90481
2866.12	3.37111
2868.33	3.41216
2870.53	-1.74682
2872.74	2.33515
2874.94	7.01029
2877.15	2.99507
2879.35	4.78266
2881.55	3.66657
2883.75	4.88222
2885.95	3.18159
2888.15	1.47196
2890.35	4.44711
2892.55	5.66871
2894.75	3.36342
2896.94	0.467815
2899.14	2.87746
2901.33	3.51811
2903.53	17.7847
2905.72	4.19611
2907.91	2.4545
2910.11	3.08731
2912.3	2.52044
2914.49	0.161846
2916.68	2.57517
2918.87	-3.97151
2921.05	4.43517
2923.24	3.87063
2925.43	2.10826
2927.61	3.95032
2929.8	0.981443
2931.99	1.02011
2934.17	11.92
2936.35	1.68536
2938.53	3.52534
2940.72	0.520969
2942.9	0.54376
2945.08	7.23758
2947.26	2.39902
2949.44	4.23891
2951.61	3.6509
2953.79	5.49491
2955.97	1.86148
2958.14	3.70597
2960.32	1.28632
2962.49	4.35621
2964.66	2.54624
2966.84	8.68181
2969.01	2.59425
2971.18	3.23188
2973.35	2.03275
2975.52	6.3528
2977.69	3.92629
2979.86	9.48546
2982.03	3.37003
2984.19	4.02128
2986.36	5.29283
2988.52	3.48237
2990.69	4.76065
2992.85	4.80663
2995.01	3.6102
2997.18	8.00458
2999.34	2.46123
3001.5	9.98658
3003.66	6.30523
3005.82	3.86298
3007.98	-0.467575
3010.14	6.47753
3012.29	8.41172
3014.45	5.9567
3016.6	5.38659
3018.76	4.18545
3020.91	6.14262
3023.07	6.83479
3025.22	1.17666
3027.37	6.93726
3029.52	9.52892
3031.67	8.93874
3033.82	5.1527
3035.97	9.01638
3038.12	9.0472
3040.27	9.09386
3042.41	3.3695
3044.56	6.60477
3046.71	5.99571
3048.85	8.59541
3051	7.98613
3053.14	9.30519
3055.28	8.05502
3057.42	6.80273
3059.56	11.3507
3061.7	9.45191
3063.84	1.08958
3065.98	12.7578
3068.12	5.03084
3070.26	8.94987
3072.39	8.98609
3074.53	10.3219
3076.67	6.46471
3078.8	14.3029
3080.93	7.83928
3083.07	12.4362
3085.2	13.139
3087.33	8.62204
3089.46	11.9447
3091.59	11.3528
3093.72	10.1073
3095.85	10.8328
3097.98	14.1909
3100.11	15.5827
3102.23	12.3631
3104.36	15.7477
3106.48	11.1992
3108.61	15.9253
3110.73	11.364
3112.85	15.4476
3114.98	19.543
3117.1	18.3065
3119.22	12.3729
3121.34	15.8236
3123.46	17.2709
3125.58	15.3548
3127.7	20.1938
3129.81	18.9605
3131.93	19.7647
3134.05	20.5702
3136.16	18.6479
3138.27	22.1873
3140.39	18.1934
3142.5	21.7382
3144.61	24.604
3146.73	23.3367
3148.84	21.372
3150.95	20.0823
3153.06	23.6332
3155.16	21.6367
3157.27	18.9354
3159.38	21.8008
3161.49	28.165
3163.59	25.4633
3165.7	22.7467
3167.8	24.2243
3169.91	28.5079
3172.01	30.7137
3174.11	27.2794
3176.21	27.3448
3178.31	23.1747
3180.41	29.5744
3182.51	27.5076
3184.61	33.9123
3186.71	35.3748
3188.81	32.5798
3190.9	31.2205
3193	40.4877
3195.1	31.3441
3197.19	33.5519
3199.28	30.099
