#Acq. time (s)=	20
#Accumulations=	3
#Range (cm-¹)=	100...4000
#Windows=	1
#Auto scanning=	Off
#Autofocus=	Off
#Macrospot=	Off
#AutoExposure=	Off
#Spike filter=	Multiple accum.
#Delay time (s)=	0
#Binning=	1
#Readout mode=	Signal
#DeNoise=	Lite
#ICS correction=	Off
#Dark correction=	Off
#Inst. Process=	Off
#Detector temperature (°C)=	-60.09
#Instrument=	LabRAM HR Evol
#Detector=	SIN-EM FIVIS
#Objective=	x50_VIS_LWD
#Grating=	150 (500nm)
#ND Filter=	100%
#Laser=	633nm_Edge
#Hole=	30.0125
#Temperature=	0
#Range=	Visible
#StageXY=	75x50mm Scan+
#StageZ=	Z motor
#X (µm)=	7466
#Y (µm)=	4175.7
#Z (µm)=	-32.7
#Full time(mm:ss)=	1:02
#Project=	Buranga
#Sample=	BU18FA20_C
#Site=	C_Bertoss1
#Title=	20-C_brt1_FI06
#Remark=	
#Date=	30.07.2019 14:32
#Acquired=	30.07.2019 14:32:44
#Data Range:Extract=	16.12.2021 15:36:30
#Base:Fit=	16.12.2021 15:36:40
#Base:Edit=	16.12.2021 15:37:36
#Base:Edit=	16.12.2021 15:37:37
#Base:Edit=	16.12.2021 15:37:38
#Base:Edit=	16.12.2021 15:37:39
#Base:Sub=	16.12.2021 15:37:43
100.38	326.775
103.641	290.686
106.898	260.164
110.156	231.872
113.411	205.09
116.666	180.692
119.918	160.704
123.17	143.673
126.419	128.646
129.669	113.914
132.916	103.522
136.163	96.1026
139.407	90.734
142.651	86.1766
145.892	82.3835
149.134	79.0209
152.372	65.675
155.611	59.1604
158.847	53.6939
162.083	48.6971
165.316	45.281
168.548	44.2619
171.781	45.4336
175.01	36.3319
178.239	28.7078
181.466	22.7322
184.693	18.0652
187.917	15.0491
191.139	12.6641
194.362	10.7866
197.582	9.43407
200.802	8.0876
204.02	6.47935
207.236	4.56337
210.452	2.49165
213.665	0.618866
216.877	-0.634933
220.089	-0.0264435
223.299	3.01547
226.508	8.70152
229.715	17.2256
232.92	17.274
236.126	42.9482
239.329	87.7232
242.53	144.332
245.732	119.39
248.931	88.4686
252.128	65.2234
255.326	49.1788
258.521	40.2501
261.714	36.4468
264.906	40.0384
268.099	42.3572
271.288	48.348
274.477	56.0736
277.665	64.54
280.851	54.3763
284.035	101.175
287.218	128.799
290.402	170.545
293.582	158.845
296.761	122.863
299.939	88.6925
303.117	61.0285
306.293	38.7784
309.466	23.5926
312.639	16.2925
315.811	16.0144
318.982	19.4995
322.151	22.5647
325.318	60.7294
328.484	105.581
331.651	173.706
334.814	204.134
337.977	156.287
341.138	113.404
344.297	79.0242
347.456	46.5943
350.614	29.2905
353.77	21.7919
356.925	27.642
360.078	36.1092
363.23	46.3845
366.381	56.5664
369.53	65.4109
372.68	65.4779
375.827	57.5229
378.972	47.2274
382.116	33.7357
385.259	19.3879
388.401	7.07819
391.541	2.15712
394.681	-0.127991
397.818	-0.261841
400.956	0.411591
404.092	1.69749
407.226	3.61313
410.359	5.62021
413.49	7.78391
416.62	9.98834
419.749	12.9568
422.877	17.5644
426.003	21.0551
429.128	36.2241
432.252	53.6374
435.375	68.5678
438.496	76.2149
441.616	113.073
444.735	120.505
447.852	115.055
450.969	110.449
454.084	105.736
457.197	100.084
460.31	93.7569
463.421	85.6891
466.531	75.8298
469.64	63.0806
472.747	48.651
475.853	35.6101
478.958	27.0975
482.062	20.443
485.164	16.4032
488.265	13.4689
491.365	10.4028
494.464	5.53586
497.561	2.87679
500.657	8.52116
503.752	13.9403
506.844	16.4533
509.937	19.3193
513.028	21.2613
516.117	22.3906
519.206	23.2568
522.293	23.889
525.38	24.0832
528.464	23.6322
531.548	22.2251
534.63	21.7066
537.71	20.7007
540.79	19.747
543.869	19.28
546.946	18.0518
550.022	17.9464
553.097	16.8426
556.169	13.2709
559.242	8.1987
562.313	5.67749
565.383	6.36412
568.452	14.1469
571.519	15.9154
574.584	15.3759
577.649	14.399
580.713	13.6599
583.775	14.3913
586.837	12.303
589.895	21.4087
592.954	34.3974
596.012	51.1085
599.068	69.0854
602.122	94.9182
605.176	115.799
608.229	123.136
611.28	120.213
614.329	105.78
617.378	94.8643
620.426	91.0721
623.473	88.8607
626.517	90.0876
629.561	92.0043
632.604	95.0054
635.644	97.4773
638.684	98.1226
641.724	94.4883
644.76	88.8157
647.797	79.524
650.833	78.726
653.867	81.6635
656.899	84.6745
659.931	95.2681
662.96	103.072
665.99	103.372
669.018	97.3625
672.044	84.5375
675.07	69.3691
678.095	55.4625
681.117	43.3941
684.139	33.1864
687.16	24.7896
690.179	17.9559
693.197	12.4579
696.213	8.81725
699.23	6.69524
702.245	6.48595
705.257	8.46233
708.27	10.8991
711.28	12.697
714.29	10.6844
717.298	6.98151
720.306	2.97152
723.312	0.543587
726.316	-0.617065
729.321	0.0764084
732.322	1.4425
735.324	4.06754
738.323	5.76736
741.323	8.66223
744.32	10.4502
747.317	11.0116
750.311	10.7486
753.306	9.81663
756.298	9.33572
759.291	9.35835
762.28	9.54845
765.27	10.0603
768.258	9.89355
771.245	9.8539
774.23	9.87663
777.215	9.88137
780.198	9.6409
783.179	9.15107
786.161	9.10368
789.14	9.03555
792.119	9.28683
795.096	8.23238
798.073	6.36108
801.047	5.64554
804.021	5.5193
806.994	5.993
809.965	3.04548
812.936	4.90408
815.904	8.71983
818.871	11.4616
821.839	12.8503
824.804	13.1033
827.769	13.7511
830.732	14.6024
833.693	15.3179
836.655	15.8013
839.614	15.9959
842.572	16.0639
845.53	16.2817
848.485	15.5409
851.44	15.8089
854.394	16.8862
857.346	19.5926
860.297	21.0767
863.248	17.7432
866.197	17.5103
869.144	18.3512
872.091	18.3701
875.037	16.5068
877.981	17.1275
880.924	19.896
883.867	22.9563
886.807	25.0996
889.746	27.2017
892.685	28.2972
895.623	26.9379
898.559	25.7242
901.493	24.8155
904.427	24.2986
907.359	24.2528
910.292	24.6914
913.222	25.5444
916.151	26.8734
919.078	29.0648
922.006	31.2711
924.932	32.9658
927.856	33.5723
930.779	34.2258
933.701	35.7365
936.622	38.2582
939.543	42.9778
942.461	49.0858
945.379	56.2213
948.295	63.0404
951.21	71.2814
954.124	80.7843
957.037	91.4208
959.95	101.097
962.861	111.345
965.77	117.956
968.678	122.265
971.585	129.72
974.491	141.09
977.396	154.554
980.3	176.705
983.202	212.615
986.104	259.179
989.005	297.996
991.904	368.887
994.802	402.801
997.699	392.341
1000.6	349.098
1003.49	306.191
1006.38	269.879
1009.28	243.408
1012.17	225.029
1015.06	210.091
1017.95	216.71
1020.83	231.571
1023.72	251.08
1026.61	272.504
1029.49	291.363
1032.37	293.065
1035.26	261.035
1038.14	225.13
1041.02	186.748
1043.9	149.841
1046.77	116.776
1049.65	105.815
1052.53	104.816
1055.4	96.5163
1058.27	89.7044
1061.15	73.5471
1064.02	64.2418
1066.88	66.1644
1069.75	66.5555
1072.62	66.3704
1075.49	67.0516
1078.35	67.1
1081.22	71.5845
1084.08	80.372
1086.94	89.7928
1089.8	96.3596
1092.66	103.756
1095.52	111.78
1098.38	114.504
1101.23	124.117
1104.09	129.533
1106.94	128.12
1109.8	118.241
1112.65	99.5442
1115.5	83.0299
1118.35	69.1848
1121.2	57.7162
1124.05	47.8526
1126.89	40.837
1129.74	35.9362
1132.58	34.8578
1135.42	40.3638
1138.27	48.1483
1141.11	52.6386
1143.95	58.8896
1146.78	64.5513
1149.62	70.2173
1152.46	75.0441
1155.29	84.5103
1158.13	89.9971
1160.96	93.3025
1163.79	84.2963
1166.62	69.5934
1169.45	51.9175
1172.28	42.3095
1175.11	27.6561
1177.93	26.512
1180.76	23.7583
1183.59	24.3683
1186.41	23.5047
1189.23	20.8906
1192.05	18.2467
1194.87	15.0575
1197.69	13.4373
1200.51	12.95
1203.32	12.852
1206.14	14.417
1208.95	14.1683
1211.77	13.206
1214.58	11.9661
1217.39	10.5852
1220.2	9.17786
1223.01	8.23975
1225.82	8.03104
1228.62	8.28738
1231.43	9.05333
1234.23	9.97332
1237.04	10.9174
1239.84	11.591
1242.64	12.056
1245.44	11.1514
1248.24	10.4869
1251.04	11.154
1253.83	12.1192
1256.63	12.8876
1259.42	13.7753
1262.22	14.8948
1265.01	16.9278
1267.8	16.3745
1270.59	13.4674
1273.38	5.61407
1276.17	8.02058
1278.96	14.2273
1281.74	64.1048
1284.53	182.766
1287.31	106.605
1290.1	28.5616
1292.88	20.4254
1295.66	13.2695
1298.44	14.1341
1301.22	11.8369
1303.99	9.92237
1306.77	9.46966
1309.55	10.0507
1312.32	10.4945
1315.09	10.9521
1317.87	11.3882
1320.64	11.0965
1323.41	9.87488
1326.18	8.85004
1328.94	8.05359
1331.71	7.58712
1334.48	7.3288
1337.24	7.2907
1340	6.70541
1342.77	3.85193
1345.53	4.13986
1348.29	2.22511
1351.05	1.85199
1353.81	1.95929
1356.56	3.67542
1359.32	5.38294
1362.08	6.96899
1364.83	8.39987
1367.58	9.49314
1370.33	10.5374
1373.09	11.7157
1375.84	12.4251
1378.58	12.7452
1381.33	13.1707
1384.08	35.287
1386.82	194.022
1389.57	309.124
1392.31	76.2251
1395.06	8.64993
1397.8	12.0643
1400.54	14.0268
1403.28	15.4075
1406.02	15.7633
1408.75	19.2732
1411.49	17.7283
1414.22	14.0598
1416.96	9.15154
1419.69	5.77876
1422.42	2.64033
1425.15	3.01785
1427.88	1.89172
1430.61	0.947441
1433.34	1.0589
1436.07	0.838112
1438.79	1.21433
1441.52	1.9866
1444.24	2.78456
1446.96	2.89188
1449.69	2.79379
1452.41	2.12416
1455.13	-2.76252
1457.84	-1.76537
1460.56	0.855667
1463.28	0.69175
1465.99	0.461487
1468.71	0.252258
1471.42	0.0972137
1474.13	-0.484573
1476.84	-0.216148
1479.55	0.435959
1482.26	1.07291
1484.97	1.75265
1487.68	2.20797
1490.39	2.7985
1493.09	3.41077
1495.79	3.54607
1498.5	3.40076
1501.2	2.82276
1503.9	1.82548
1506.6	0.974258
1509.3	0.0415268
1512	-0.691872
1514.69	-1.58028
1517.39	-0.910332
1520.08	0.220619
1522.78	0.331772
1525.47	-0.282608
1528.16	-1.15036
1530.85	-2.23087
1533.54	-3.22896
1536.23	-3.77765
1538.92	-3.55476
1541.61	-3.54624
1544.29	-3.65676
1546.98	-6.88972
1549.66	-3.80034
1552.34	-0.831367
1555.02	0.168777
1557.7	0.61631
1560.38	0.305061
1563.06	0.575241
1565.74	1.947
1568.42	3.45319
1571.09	4.09676
1573.77	3.88589
1576.44	2.68496
1579.11	2.27624
1581.78	2.05557
1584.45	2.29699
1587.12	2.4439
1589.79	2.72469
1592.46	3.06052
1595.12	3.63695
1597.79	3.57639
1600.45	3.25991
1603.12	2.58442
1605.78	1.70769
1608.44	-0.000816345
1611.1	0.0878448
1613.76	0.345078
1616.42	0.661278
1619.08	1.00885
1621.73	1.22343
1624.39	1.5034
1627.04	1.85628
1629.7	2.35654
1632.35	2.49719
1635	1.64864
1637.65	0.358177
1640.3	-0.677605
1642.95	-0.942413
1645.59	-1.38727
1648.24	-0.49231
1650.88	0.152
1653.53	0.843697
1656.17	1.33784
1658.82	2.29516
1661.46	3.26108
1664.1	4.24736
1666.74	4.87836
1669.37	5.04089
1672.01	4.87307
1674.65	4.3713
1677.28	4.02058
1679.92	4.13198
1682.55	4.33104
1685.18	4.63802
1687.82	5.01806
1690.44	5.70171
1693.07	6.59988
1695.7	6.54363
1698.33	5.16209
1700.96	3.24679
1703.58	1.18008
1706.21	-0.122551
1708.83	-0.920807
1711.45	-0.85421
1714.07	0.948502
1716.69	2.2401
1719.31	3.45802
1721.93	3.55029
1724.55	2.79985
1727.17	2.3763
1729.78	2.68992
1732.4	3.34748
1735.01	3.42063
1737.62	3.89498
1740.23	4.26738
1742.85	4.49792
1745.46	4.5112
1748.07	3.64007
1750.67	2.64738
1753.28	1.60722
1755.89	1.30101
1758.49	1.58578
1761.09	2.4279
1763.7	2.81448
1766.3	2.26866
1768.9	1.8985
1771.5	1.657
1774.1	1.54391
1776.7	1.46419
1779.29	1.54295
1781.89	1.75061
1784.49	1.989
1787.08	2.52821
1789.67	3.66051
1792.27	3.91997
1794.86	3.85687
1797.45	3.6756
1800.04	2.9702
1802.62	1.19881
1805.21	0.354042
1807.8	0.351067
1810.38	0.115204
1812.97	1.72458
1815.55	2.41879
1818.14	2.20478
1820.72	2.95618
1823.3	3.84216
1825.88	4.67492
1828.46	4.54886
1831.03	3.84603
1833.61	3.02354
1836.19	2.13004
1838.76	1.46569
1841.34	1.4781
1843.91	2.26991
1846.48	3.479
1849.05	3.77443
1851.62	3.55939
1854.19	4.20347
1856.76	3.85735
1859.33	2.63931
1861.89	1.46932
1864.46	0.824341
1867.02	1.04346
1869.59	1.30963
1872.15	1.70898
1874.71	2.25275
1877.27	3.14192
1879.83	4.04564
1882.39	4.31934
1884.95	4.94434
1887.51	5.71671
1890.06	6.44005
1892.62	6.12559
1895.17	5.5965
1897.72	5.18491
1900.27	5.06219
1902.83	5.16377
1905.38	4.6853
1907.93	4.40715
1910.47	-1.31975
1913.02	1.00409
1915.57	2.66885
1918.11	4.02029
1920.66	3.16284
1923.2	2.67741
1925.74	1.84592
1928.29	1.60146
1930.83	1.65079
1933.37	1.63963
1935.91	0.856461
1938.44	0.756836
1940.98	1.00487
1943.52	1.341
1946.05	1.59328
1948.59	1.83427
1951.12	2.07698
1953.65	2.1878
1956.18	1.74049
1958.72	1.62221
1961.25	4.93143
1963.77	2.0797
1966.3	1.33714
1968.83	1.72201
1971.35	2.64108
1973.88	3.1562
1976.4	3.55224
1978.93	3.72557
1981.45	3.69218
1983.97	3.33587
1986.49	4.1032
1989.01	4.8959
1991.53	5.41881
1994.05	5.63931
1996.56	5.35439
1999.08	4.95535
2001.59	4.4989
2004.11	3.97172
2006.62	3.24213
2009.13	2.27113
2011.64	0.910194
2014.15	0.952972
2016.66	1.73869
2019.17	2.02254
2021.68	1.80729
2024.18	1.12392
2026.69	0.835915
2029.19	1.04845
2031.7	1.13946
2034.2	1.39465
2036.7	1.88048
2039.2	2.26029
2041.7	3.3275
2044.2	4.4883
2046.7	4.96571
2049.2	4.02045
2051.7	3.77192
2054.19	3.09319
2056.69	3.08581
2059.18	3.04943
2061.67	2.73679
2064.16	2.71976
2066.65	2.81377
2069.15	2.86058
2071.63	2.96275
2074.12	3.22389
2076.61	3.57776
2079.1	3.86195
2081.58	3.79307
2084.07	3.90424
2086.55	5.23222
2089.03	5.67413
2091.51	6.00317
2094	5.97811
2096.47	4.54443
2098.95	3.42217
2101.43	3.58749
2103.91	3.80067
2106.39	4.38739
2108.86	4.33399
2111.34	3.70044
2113.81	2.92381
2116.28	2.11977
2118.76	0.960793
2121.23	0.784737
2123.7	1.04798
2126.17	-0.0695648
2128.63	-2.29446
2131.1	-2.04772
2133.57	-1.09173
2136.03	-0.00140381
2138.5	1.86211
2140.96	2.26653
2143.43	2.40463
2145.89	2.59245
2148.35	2.79549
2150.81	2.8704
2153.27	3.60226
2155.73	3.80908
2158.18	4.05145
2160.64	4.60526
2163.1	6.96819
2165.55	6.17001
2168	2.63174
2170.46	-0.206764
2172.91	-1.90309
2175.36	-2.01584
2177.81	-1.07767
2180.26	0.219933
2182.71	2.13083
2185.16	3.35391
2187.6	4.41716
2190.05	5.16496
2192.5	4.73729
2194.94	3.95248
2197.38	2.69524
2199.83	1.64891
2202.27	0.836372
2204.71	0.351524
2207.15	-0.0640182
2209.59	-0.188034
2212.02	-0.100067
2214.46	0.230042
2216.9	0.0279312
2219.33	1.46014
2221.77	3.72536
2224.2	3.6122
2226.64	3.33215
2229.07	4.65445
2231.5	2.63882
2233.93	2.54343
2236.36	3.46928
2238.79	5.91603
2241.21	6.47068
2243.64	6.03564
2246.06	5.7704
2248.49	5.13131
2250.91	4.70126
2253.34	4.45377
2255.76	4.75735
2258.18	6.79904
2260.6	6.89877
2263.02	7.39212
2265.44	6.47805
2267.86	6.43253
2270.27	6.34422
2272.69	6.78899
2275.11	6.14296
2277.52	3.26839
2279.93	3.66986
2282.35	4.53626
2284.76	6.18494
2287.17	6.51835
2289.58	5.62743
2291.99	4.27023
2294.4	3.18227
2296.8	2.45662
2299.21	2.25425
2301.62	2.88745
2304.02	4.17931
2306.43	5.02923
2308.83	5.85197
2311.23	6.57047
2313.63	7.28484
2316.03	7.88498
2318.43	7.25699
2320.83	5.91822
2323.23	5.68622
2325.63	5.87279
2328.02	5.95582
2330.42	5.97081
2332.81	6.14043
2335.21	6.45412
2337.6	5.30262
2339.99	4.01987
2342.38	3.50634
2344.77	3.81789
2347.16	4.81371
2349.55	5.39337
2351.94	5.75204
2354.32	5.28784
2356.71	4.70454
2359.1	3.29696
2361.48	2.79121
2363.86	3.32928
2366.25	4.30801
2368.63	6.51255
2371.01	6.27492
2373.39	5.92054
2375.77	5.5772
2378.15	5.52194
2380.52	5.55362
2382.9	5.91605
2385.28	5.64484
2387.65	3.88858
2390.03	2.1759
2392.4	1.79583
2394.77	2.78422
2397.14	3.37583
2399.51	4.08964
2401.88	4.54377
2404.25	4.55458
2406.62	4.54896
2408.99	4.56973
2411.35	4.52356
2413.72	4.08891
2416.08	3.65138
2418.45	3.24881
2420.81	3.56481
2423.17	2.85613
2425.53	3.00256
2427.89	3.29477
2430.25	3.95204
2432.61	5.04948
2434.97	6.13924
2437.33	3.66222
2439.69	1.61323
2442.04	2.60606
2444.4	4.52151
2446.75	4.67899
2449.1	4.92254
2451.45	5.18956
2453.81	5.1842
2456.16	4.97588
2458.51	4.51486
2460.85	3.41696
2463.2	2.86061
2465.55	2.68636
2467.9	2.585
2470.24	2.60435
2472.59	2.80186
2474.93	2.09307
2477.27	1.8019
2479.62	1.99797
2481.96	2.63514
2484.3	3.28748
2486.64	3.95649
2488.98	4.84819
2491.31	5.29305
2493.65	5.30512
2495.99	4.70722
2498.32	2.49554
2500.66	0.616119
2502.99	0.891457
2505.32	1.70892
2507.66	0.652454
2509.99	3.74283
2512.32	5.26421
2514.65	5.21185
2516.98	4.79851
2519.31	4.35925
2521.63	2.80929
2523.96	-0.463799
2526.28	-1.86875
2528.61	-1.73616
2530.93	3.13561
2533.26	4.1986
2535.58	4.54839
2537.9	4.82744
2540.22	4.84171
2542.54	4.39188
2544.86	1.47555
2547.18	4.29379
2549.5	4.29275
2551.81	4.14038
2554.13	3.78805
2556.44	3.51278
2558.76	2.72813
2561.07	1.31026
2563.38	2.07604
2565.69	3.06202
2568.01	3.4777
2570.32	3.06078
2572.62	3.80483
2574.93	4.13735
2577.24	4.36185
2579.55	4.78738
2581.85	5.35302
2584.16	4.8582
2586.46	4.76033
2588.77	4.2822
2591.07	4.36357
2593.37	4.77883
2595.67	5.51247
2597.97	6.12476
2600.27	6.40047
2602.57	6.4776
2604.87	6.19496
2607.17	5.73642
2609.46	5.3983
2611.76	4.05564
2614.05	3.82512
2616.35	4.37965
2618.64	4.87616
2620.93	5.02369
2623.22	4.62586
2625.51	3.98796
2627.8	3.08361
2630.09	2.31611
2632.38	1.94012
2634.67	1.76421
2636.96	2.19183
2639.24	2.89287
2641.53	3.49692
2643.81	4.07143
2646.09	4.63939
2648.38	5.53321
2650.66	4.24242
2652.94	3.08308
2655.22	1.08672
2657.5	3.44933
2659.78	3.69604
2662.06	3.87421
2664.33	3.29126
2666.61	2.33834
2668.88	1.85109
2671.16	1.78415
2673.43	1.98355
2675.71	2.08055
2677.98	2.43021
2680.25	3.0076
2682.52	3.9292
2684.79	4.71595
2687.06	4.71515
2689.33	4.56749
2691.6	4.08068
2693.86	3.54236
2696.13	2.92692
2698.39	3.47184
2700.66	4.57193
2702.92	4.94964
2705.18	4.39131
2707.45	3.85342
2709.71	4.03701
2711.97	4.29849
2714.23	4.56153
2716.49	4.66321
2718.74	5.15419
2721	5.06816
2723.26	3.83601
2725.51	3.99285
2727.77	3.43946
2730.02	2.5368
2732.28	1.0484
2734.53	0.848572
2736.78	1.73062
2739.03	2.70881
2741.28	3.71723
2743.53	4.6244
2745.78	5.2739
2748.03	5.77431
2750.27	6.01113
2752.52	5.1759
2754.77	4.19666
2757.01	4.1243
2759.26	4.32602
2761.5	4.86345
2763.74	5.74649
2765.98	6.02972
2768.22	4.29939
2770.46	3.95425
2772.7	3.49666
2774.94	3.26532
2777.18	3.04602
2779.42	2.54524
2781.65	1.88092
2783.89	1.84699
2786.12	1.96842
2788.36	1.72418
2790.59	1.61989
2792.82	2.34372
2795.05	2.74731
2797.28	3.09668
2799.51	3.49332
2801.74	3.93798
2803.97	4.33397
2806.2	4.66248
2808.43	3.38124
2810.65	1.19622
2812.88	1.28544
2815.1	1.89743
2817.33	2.80717
2819.55	4.00805
2821.77	4.41074
2823.99	4.83568
2826.21	4.93834
2828.43	5.83274
2830.65	4.99391
2832.87	3.65085
2835.09	2.94055
2837.3	2.62243
2839.52	2.67514
2841.74	3.10517
2843.95	3.5112
2846.17	2.85195
2848.38	1.8281
2850.59	1.8998
2852.8	2.34862
2855.01	3.8599
2857.22	3.10435
2859.43	2.0225
2861.64	0.336708
2863.85	-2.42971
2866.06	-1.19685
2868.26	0.234756
2870.47	1.81671
2872.67	3.08369
2874.88	1.6716
2877.08	1.96609
2879.28	1.22831
2881.48	1.64827
2883.68	3.35839
2885.89	3.34266
2888.08	3.03016
2890.28	2.41141
2892.48	1.21795
2894.68	1.5538
2896.87	1.79263
2899.07	2.1789
2901.26	2.48174
2903.46	2.40773
2905.65	1.99129
2907.85	1.54724
2910.04	1.17784
2912.23	1.21957
2914.42	0.768387
2916.61	-0.318298
2918.8	-1.42316
2920.98	-1.829
2923.17	0.235725
2925.36	1.67208
2927.54	1.68966
2929.73	0.911453
2931.91	0.278645
2934.1	0.769569
2936.28	1.54363
2938.46	2.50459
2940.64	1.96055
2942.82	1.9238
2945	2.20444
2947.18	2.79856
2949.36	4.3947
2951.54	3.66661
2953.72	3.31237
2955.89	3.43068
2958.07	3.81924
2960.24	3.83125
2962.42	3.67357
2964.59	3.60204
2966.76	3.64209
2968.93	3.72146
2971.1	3.97038
2973.27	4.31486
2975.44	3.70344
2977.61	2.42601
2979.78	0.62331
2981.95	0.521873
2984.11	1.09857
2986.28	0.799061
2988.45	0.544952
2990.61	0.384125
2992.77	0.352829
2994.94	0.374065
2997.1	0.443691
2999.26	0.69738
3001.42	1.07497
3003.58	1.48917
3005.74	1.9363
3007.9	2.46471
3010.06	3.12231
3012.21	2.89571
3014.37	2.18559
3016.52	1.42125
3018.68	1.4519
3020.83	2.38266
3022.99	3.35883
3025.14	2.76368
3027.29	2.52191
3029.44	1.98792
3031.59	1.29069
3033.74	1.16435
3035.89	1.60175
3038.04	2.50238
3040.19	3.31419
3042.33	2.43393
3044.48	2.22861
3046.62	2.4272
3048.77	3.1195
3050.91	2.67828
3053.05	2.30673
3055.2	2.60714
3057.34	1.80227
3059.48	1.76395
3061.62	2.2717
3063.76	2.99198
3065.9	3.60278
3068.03	3.74885
3070.17	3.81864
3072.31	3.81627
3074.44	4.25414
3076.58	4.91956
3078.71	4.7464
3080.85	4.52277
3082.98	3.86898
3085.11	3.45711
3087.24	4.31786
3089.37	4.98573
3091.5	5.29401
3093.63	5.40018
3095.76	5.20428
3097.89	5.14719
3100.02	4.28683
3102.14	2.70992
3104.27	3.32301
3106.39	-3.10123
3108.52	3.51188
3110.64	5.08706
3112.76	6.26193
3114.89	7.03846
3117.01	7.18146
3119.13	6.46666
3121.25	5.20142
3123.37	4.01077
3125.49	2.95702
3127.6	2.13796
3129.72	2.38776
3131.84	3.31107
3133.95	4.18903
3136.07	5.95057
3138.18	6.94524
3140.29	7.27264
3142.41	7.47129
3144.52	7.51595
3146.63	7.46756
3148.74	6.54228
3150.85	5.77738
3152.96	5.25518
3155.07	4.95216
3157.18	5.01879
3159.28	4.62167
3161.39	3.94003
3163.5	3.77504
3165.6	4.19261
3167.71	5.39064
3169.81	5.65355
3171.91	6.17399
3174.01	6.70942
3176.12	6.9451
3178.22	7.10561
3180.32	7.11042
3182.42	7.62038
3184.51	7.75683
3186.61	7.9036
3188.71	7.36848
3190.8	9.1385
3192.9	10.9241
3195	10.993
3197.09	10.3393
3199.18	9.45315
3201.28	8.8432
3203.37	8.46016
3205.46	8.62488
3207.55	7.53035
3209.64	6.89012
3211.73	6.58672
3213.82	6.94157
3215.91	7.74397
3218	8.62262
