#Acq. time (s)=	30
#Accumulations=	2
#Range (cm-¹)=	1200...2999
#Windows=	5
#Auto scanning=	Off
#Autofocus=	Off
#Macrospot=	Off
#AutoExposure=	Off
#Spike filter=	Multiple accum.
#Delay time (s)=	2
#Binning=	1
#Readout mode=	Signal
#DeNoise=	Off
#ICS correction=	On
#Dark correction=	Off
#Inst. Process=	Off
#Detector Gain=	Best Dynamic
#Detector ADC=	50 kHz EM
#Detector EM gain=	150
#Detector temperature (°C)=	-60.09
#Instrument=	LabRAM HR Evol
#Detector=	SIN-EM FIVIS
#Objective=	x100_VIS_LWD
#Grating=	1800 (450-850nm)
#ND Filter=	100%
#Laser=	532nm_Edge
#Hole=	30.0125
#Temperature=	40
#Range=	Visible
#StageXY=	75x50mm Scan+
#StageZ=	Z motor
#X (µm)=	0
#Y (µm)=	0
#Z (µm)=	71.2
#Full time(mm:ss)=	5:34
#Project=	21_08_11
#Sample=	BU32
#Site=	
#Title=	BU32-B-FF2-FI04-V_1800 (450-850nm)_532nm_Edge_100%_x100_VIS_LWD_H30um_30sX2
#Remark=	
#Date=	13.08.2021 15:57
#Acquired=	13.08.2021 15:57:04
#Base:Fit=	16.12.2021 15:06:56
#Base:Sub=	16.12.2021 15:06:58
1200.05	8.25912
1200.33	-5.79486
1200.61	2.75836
1200.89	3.65488
1201.16	-0.850372
1201.44	3.30533
1201.72	6.49225
1202	-1.92261
1202.28	7.17548
1202.55	4.15042
1202.83	8.27853
1203.11	5.91861
1203.39	3.6149
1203.67	9.97891
1203.94	3.552
1204.22	2.55954
1204.5	3.60608
1204.78	9.96341
1205.06	6.63239
1205.33	-2.07825
1205.61	-0.0578918
1205.89	4.10925
1206.17	9.34482
1206.44	7.07462
1206.72	2.68878
1207	1.56158
1207.28	2.58484
1207.55	6.84155
1207.83	-0.684906
1208.11	-3.95947
1208.39	4.53888
1208.67	1.27646
1208.94	5.54062
1209.22	11.972
1209.5	0.214813
1209.78	3.38895
1210.05	9.69821
1210.33	4.25348
1210.61	-2.23047
1210.89	6.21765
1211.16	0.812469
1211.44	4.98071
1211.72	3.81738
1212	-1.57339
1212.27	7.95285
1212.55	6.81842
1212.83	8.90979
1213.11	-1.75101
1213.38	7.79175
1213.66	8.89856
1213.94	5.74887
1214.22	1.52621
1214.49	1.55521
1214.77	12.2198
1215.05	3.71729
1215.33	1.59674
1215.6	4.73834
1215.88	-1.7298
1216.16	-2.90338
1216.44	-7.25595
1216.71	-5.19876
1216.99	-7.38409
1217.27	11.6691
1217.54	2.0647
1217.82	5.20697
1218.1	7.28796
1218.38	-1.21219
1218.65	1.98007
1218.93	-0.142517
1219.21	7.27676
1219.49	3.00146
1219.76	-2.28406
1220.04	-2.25012
1220.32	-2.23776
1220.59	4.12674
1220.87	7.27759
1221.15	3.01041
1221.43	-2.35098
1221.7	4.97083
1221.98	0.615326
1222.26	-4.80939
1222.53	-7.04987
1222.81	-3.99051
1223.09	-4.09863
1223.36	0.0475769
1223.64	-1.0957
1223.92	3.07602
1224.2	-1.17941
1224.47	-1.19626
1224.75	0.933594
1225.03	4.16559
1225.3	9.5134
1225.58	-3.08545
1225.86	1.15582
1226.13	4.32947
1226.41	0.0782166
1226.69	-5.22568
1226.96	-6.4061
1227.24	-5.61743
1227.52	10.0079
1227.79	3.52881
1228.07	-0.951233
1228.35	-9.58121
1228.63	-1.18671
1228.9	0.631622
1229.18	-2.83798
1229.45	1.16858
1229.73	1.93591
1230.01	0.780212
1230.28	9.27911
1230.56	-5.58179
1230.84	-0.985077
1231.11	3.31332
1231.39	4.38776
1231.67	-5.04788
1231.94	1.24463
1232.22	4.41922
1232.5	-8.17514
1232.77	-2.9256
1233.05	5.49719
1233.33	-1.80972
1233.6	-3.85181
1233.88	13.0195
1234.16	0.487
1234.43	0.573792
1234.71	-1.47263
1234.99	-2.46533
1235.26	-2.39548
1235.54	5.02295
1235.82	3.99918
1236.09	-1.26764
1236.37	8.1716
1236.65	-2.37643
1236.92	-2.45419
1237.2	5.86127
1237.47	6.82257
1237.75	-5.86026
1238.03	0.347656
1238.3	1.33133
1238.58	3.40027
1238.86	0.23877
1239.13	-0.81488
1239.41	5.48166
1239.68	-7.07898
1239.96	7.62265
1240.24	-8.06281
1240.51	0.368683
1240.79	-1.68491
1241.07	7.75476
1241.34	-3.80545
1241.62	2.47195
1241.89	0.40683
1242.17	-6.8779
1242.45	-4.71341
1242.72	-2.53946
1243	4.82617
1243.27	-1.43472
1243.55	20.6302
1243.83	3.88623
1244.1	-1.34753
1244.38	8.08511
1244.65	-1.38467
1244.93	0.657654
1245.21	-8.84772
1245.48	-1.59726
1245.76	1.52026
1246.03	-4.75626
1246.31	-4.72934
1246.59	0.529694
1246.86	-1.56049
1247.14	-0.49472
1247.41	1.59708
1247.69	19.2983
1247.97	-3.75958
1248.24	0.434906
1248.52	2.57166
1248.79	-6.78827
1249.07	1.59174
1249.34	2.6532
1249.62	6.86844
1249.9	7.8819
1250.17	-1.58401
1250.45	7.77847
1250.72	-5.84338
1251	2.48764
1251.27	2.4603
1251.55	5.56326
1251.83	-4.91116
1252.1	2.36652
1252.38	-0.804291
1252.65	1.24963
1252.93	5.4176
1253.2	2.314
1253.48	2.3902
1253.76	8.74289
1254.03	-4.73102
1254.31	2.63821
1254.58	-5.68439
1254.86	2.72198
1255.13	-3.51315
1255.41	4.85315
1255.68	9.07166
1255.96	12.2574
1256.23	-4.37537
1256.51	0.894897
1256.79	0.909393
1257.06	4.02313
1257.34	5.06631
1257.61	8.20267
1257.89	6.11526
1258.16	12.3758
1258.44	1.88174
1258.71	7.11459
1258.99	10.3159
1259.27	-1.10638
1259.54	1.16858
1259.82	8.42038
1260.09	9.41803
1260.37	11.4105
1260.64	6.13834
1260.92	11.3268
1261.19	4.0726
1261.47	4.37933
1261.74	11.0869
1262.02	5.16187
1262.29	4.63089
1262.57	3.22729
1262.84	22.8446
1263.12	20.0883
1263.39	28.7368
1263.67	33.2564
1263.94	38.765
1264.22	34.3707
1264.49	34.2999
1264.77	24.9175
1265.04	30.1523
1265.32	14.4354
1265.59	1.92059
1265.87	6.14963
1266.14	15.6252
1266.42	3.17191
1266.7	8.5014
1266.97	3.38785
1267.24	8.74057
1267.52	4.6897
1267.79	7.99765
1268.07	6.06033
1268.35	14.5342
1268.62	5.18808
1268.89	3.1633
1269.17	8.41907
1269.44	11.5188
1269.72	2.02295
1269.99	9.30658
1270.27	11.3503
1270.54	5.03824
1270.82	2.948
1271.09	6.07474
1271.37	8.21164
1271.64	8.31097
1271.92	9.47812
1272.19	13.8185
1272.47	17.0804
1272.74	13.0053
1273.02	-2.59955
1273.29	14.2862
1273.57	8.11093
1273.84	-3.34171
1274.12	1.94946
1274.39	11.407
1274.66	6.18967
1274.94	21.9854
1275.21	2.1326
1275.49	4.31549
1275.76	4.41971
1276.04	9.75696
1276.31	8.79871
1276.59	9.92276
1276.86	8.97897
1277.14	5.93546
1277.41	9.19409
1277.69	7.1864
1277.96	8.32336
1278.23	9.49985
1278.51	11.6847
1278.78	1.25433
1279.06	6.52463
1279.33	1.26807
1279.61	17.0312
1279.88	11.7828
1280.15	9.73288
1280.43	15.0457
1280.7	21.4658
1280.98	27.9205
1281.25	14.3193
1281.53	16.4407
1281.8	13.3379
1282.08	38.6816
1282.35	44.9734
1282.62	51.1591
1282.9	61.3576
1283.17	86.4397
1283.45	169.494
1283.72	227.429
1284	308.805
1284.27	473.322
1284.54	456.532
1284.82	332.952
1285.09	207.44
1285.37	108.492
1285.64	71.7597
1285.91	49.6858
1286.19	45.4219
1286.46	23.3347
1286.74	20.1854
1287.01	19.1129
1287.28	20.1322
1287.56	23.2758
1287.83	18.0352
1288.11	19.1242
1288.38	14.9621
1288.66	13.9853
1288.93	16.1774
1289.2	11.0014
1289.48	10.0427
1289.75	16.4511
1290.02	14.379
1290.3	13.3149
1290.57	13.3214
1290.85	4.91705
1291.12	3.88763
1291.39	11.2764
1291.67	15.5149
1291.94	7.13766
1292.22	15.5792
1292.49	11.3633
1292.76	14.5619
1293.04	9.41809
1293.31	6.42105
1293.59	11.8564
1293.86	14.0492
1294.13	11.9637
1294.41	17.2464
1294.68	2.55203
1294.95	3.76544
1295.23	14.5201
1295.5	9.49683
1295.77	10.7346
1296.05	8.69058
1296.32	6.61276
1296.6	0.269226
1296.87	6.58255
1297.14	11.8273
1297.42	14.9489
1297.69	8.55344
1297.96	9.6572
1298.24	24.4567
1298.51	12.8125
1298.78	8.57001
1299.06	19.1016
1299.33	11.729
1299.6	19.1973
1299.88	5.53732
1300.15	8.7431
1300.43	5.58994
1300.7	5.60385
1300.97	14.09
1301.25	11.0006
1301.52	6.85501
1301.79	14.3064
1302.07	2.72519
1302.34	15.4249
1302.61	15.432
1302.89	12.2553
1303.16	-0.446289
1303.43	15.4026
1303.71	5.93112
1303.98	12.2953
1304.25	9.15073
1304.53	14.4205
1304.8	15.4464
1305.07	18.5656
1305.35	4.79965
1305.62	15.2966
1305.89	5.76193
1306.17	12.0839
1306.44	6.83209
1306.71	4.77954
1306.98	14.31
1307.26	9.05838
1307.53	9.07913
1307.8	7.01907
1308.08	10.186
1308.35	13.3904
1308.62	2.91983
1308.9	7.21124
1309.17	12.5625
1309.44	17.9012
1309.71	16.866
1309.99	12.6475
1310.26	4.23001
1310.53	12.7119
1310.81	10.6457
1311.08	9.63138
1311.35	13.9017
1311.63	4.48395
1311.9	13.0071
1312.17	12.0024
1312.45	7.79965
1312.72	8.82819
1312.99	10.9492
1313.26	5.67151
1313.54	12.0057
1313.81	14.1394
1314.08	9.96069
1314.36	11.0735
1314.63	7.97214
1314.9	17.5409
1315.17	14.442
1315.45	17.6801
1315.72	5.02499
1315.99	7.14304
1316.26	2.93002
1316.54	9.28296
1316.81	10.3637
1317.08	12.543
1317.36	7.32166
1317.63	2.0874
1317.9	9.52231
1318.17	9.55634
1318.45	21.2054
1318.72	8.54556
1318.99	19.1228
1319.26	12.7976
1319.54	11.7859
1319.81	10.7619
1320.08	14.9984
1320.35	12.8673
1320.63	10.7108
1320.9	7.47879
1321.17	20.0649
1321.44	5.25806
1321.72	8.35492
1321.99	13.6088
1322.26	11.4793
1322.53	14.624
1322.81	18.7883
1323.08	9.36652
1323.35	11.516
1323.62	8.38629
1323.9	11.5623
1324.17	12.6512
1324.44	21.0953
1324.71	10.6108
1324.99	4.23587
1325.26	14.6589
1325.53	6.07947
1325.8	10.0692
1326.08	11.0447
1326.35	11.0308
1326.62	11.1441
1326.89	13.5057
1327.16	9.43326
1327.44	21.1625
1327.71	9.72076
1327.98	7.76706
1328.25	7.89783
1328.53	4.80804
1328.8	16.3811
1329.07	9.06415
1329.34	9.07687
1329.61	17.5171
1329.89	16.4466
1330.16	10.0853
1330.43	21.634
1330.7	9.96631
1330.98	13.032
1331.25	11.8578
1331.52	14.924
1331.79	11.7001
1332.06	17.9415
1332.33	12.5944
1332.61	20.9138
1332.88	14.5216
1333.15	14.4453
1333.42	7.02234
1333.69	10.1081
1333.97	15.2976
1334.24	7.89236
1334.51	2.60056
1334.78	14.1068
1335.05	16.1674
1335.33	7.74231
1335.6	12.9571
1335.87	19.2238
1336.14	16.0577
1336.41	14.9946
1336.69	4.5051
1336.96	2.40622
1337.23	6.59024
1337.5	9.68765
1337.77	7.53546
1338.04	6.46457
1338.32	11.6741
1338.59	13.7526
1338.86	10.6242
1339.13	14.8463
1339.4	3.37085
1339.67	15.9702
1339.95	10.769
1340.22	12.9001
1340.49	16.0625
1340.76	6.64752
1341.03	12.9335
1341.3	16.0645
1341.58	12.8975
1341.85	11.8076
1342.12	11.7478
1342.39	9.59393
1342.66	17.9346
1342.93	11.6572
1343.2	8.53113
1343.48	12.7352
1343.75	5.4433
1344.02	10.6984
1344.29	7.56
1344.56	11.7167
1344.83	0.171326
1345.1	12.6416
1345.38	6.31076
1345.65	14.5875
1345.92	5.05981
1346.19	12.2777
1346.46	18.4648
1346.73	1.69843
1347	13.1032
1347.28	10.9781
1347.55	7.8317
1347.82	9.91061
1348.09	13.0371
1348.36	19.2663
1348.63	8.8114
1348.9	9.81445
1349.18	1.44687
1349.45	5.57901
1349.72	6.58762
1349.99	13.8395
1350.26	11.705
1350.53	6.44513
1350.8	4.33289
1351.07	6.35834
1351.34	12.5898
1351.62	6.36569
1351.89	13.7008
1352.16	13.7904
1352.43	6.63193
1352.7	15.0201
1352.97	17.3831
1353.24	6.29465
1353.51	8.15115
1353.78	10.8119
1354.06	14.6123
1354.33	5.31134
1354.6	22.0061
1354.87	16.728
1355.14	8.35541
1355.41	3.27713
1355.68	14.7908
1355.95	11.6182
1356.22	7.45444
1356.49	11.6045
1356.76	5.3663
1357.04	11.5802
1357.3	12.5926
1357.58	13.5989
1357.85	13.5637
1358.12	16.6443
1358.39	10.3793
1358.66	4.1138
1358.93	9.27606
1359.2	-1.11169
1359.47	13.3552
1359.74	17.4253
1360.01	12.1765
1360.28	20.4202
1360.56	1.7677
1360.83	16.2856
1361.1	11.1201
1361.37	10.0892
1361.64	13.1852
1361.91	7.99347
1362.18	10.0569
1362.45	7.99414
1362.72	12.175
1362.99	4.99969
1363.26	-3.21854
1363.53	9.27179
1363.8	19.6591
1364.07	14.4813
1364.34	9.29355
1364.61	9.26294
1364.89	14.3929
1365.16	12.269
1365.43	12.2181
1365.7	13.2038
1365.97	4.87589
1366.24	13.083
1366.51	16.0977
1366.78	13.9917
1367.05	17.0826
1367.32	1.63342
1367.59	12.0222
1367.86	7.92999
1368.13	25.5464
1368.4	5.94687
1368.67	15.3004
1368.94	12.2448
1369.21	37.0518
1369.48	28.7634
1369.75	32.8824
1370.02	25.5897
1370.29	5.92975
1370.56	8.99707
1370.83	15.1322
1371.1	10.9186
1371.37	7.72076
1371.64	12.7797
1371.91	13.7196
1372.18	8.49814
1372.45	6.40057
1372.72	4.31815
1372.99	11.5153
1373.26	4.29041
1373.54	12.5288
1373.8	15.619
1374.07	9.43875
1374.34	14.5884
1374.61	10.4497
1374.89	3.26816
1375.16	10.5411
1375.42	18.8002
1375.69	9.57373
1375.96	10.5523
1376.24	12.5578
1376.51	13.5078
1376.77	12.3528
1377.04	7.25735
1377.31	9.41312
1377.58	17.7952
1377.86	4.58096
1378.12	6.85483
1378.39	13.128
1378.66	15.2064
1378.93	10.032
1379.2	10.011
1379.47	8.94345
1379.74	7.82431
1380.01	17.8633
1380.28	16.7099
1380.55	12.4598
1380.82	11.5287
1381.09	10.4509
1381.36	14.4388
1381.63	22.5155
1381.9	15.2062
1382.17	20.2463
1382.44	21.1607
1382.71	15.9643
1382.98	26.1391
1383.25	22.0023
1383.52	27.0924
1383.79	20.9736
1384.06	28.196
1384.33	13.921
1384.6	26.33
1384.87	21.3625
1385.14	37.894
1385.41	62.644
1385.68	50.3852
1385.95	56.65
1386.21	79.308
1386.48	122.475
1386.76	208.505
1387.03	345.842
1387.29	639.309
1387.56	919.483
1387.83	877.822
1388.1	513.971
1388.37	265.711
1388.64	160.45
1388.91	95.7966
1389.18	59.9523
1389.45	34.2072
1389.72	37.0618
1389.99	23.5533
1390.26	32.8459
1390.53	18.356
1390.8	39.8635
1391.06	31.6656
1391.33	31.6136
1391.6	31.5468
1391.87	24.3215
1392.14	28.3808
1392.41	6.85626
1392.68	6.84116
1392.95	21.1606
1393.22	17.058
1393.49	13.9829
1393.76	23.1914
1394.03	11.9372
1394.3	23.1999
1394.56	20.1763
1394.83	11.0454
1395.1	3.94223
1395.37	14.2203
1395.64	15.2591
1395.91	10.1383
1396.18	22.4052
1396.45	9.08176
1396.72	9.04855
1396.99	20.2621
1397.26	7.97418
1397.52	5.94318
1397.79	19.28
1398.06	13.2006
1398.33	20.4094
1398.6	12.2645
1398.87	19.4977
1399.14	16.4889
1399.41	9.37793
1399.68	8.37857
1399.95	14.579
1400.22	14.6771
1400.48	12.6959
1400.75	18.8578
1401.02	21.9833
1401.29	12.7922
1401.56	17.0035
1401.83	16.1721
1402.1	6.13559
1402.37	10.4095
1402.63	15.6707
1402.9	20.8841
1403.17	3.46457
1403.44	17.8054
1403.71	20.7269
1403.98	7.43573
1404.25	15.6463
1404.51	10.5029
1404.78	15.5991
1405.05	15.561
1405.32	9.37366
1405.59	22.6693
1405.86	23.6799
1406.13	14.4463
1406.39	14.4796
1406.66	17.5988
1406.93	25.8507
1407.2	21.7921
1407.47	14.6569
1407.74	21.8744
1408.01	38.3213
1408.27	45.546
1408.54	47.6518
1408.81	36.4209
1409.08	70.3209
1409.35	40.6167
1409.62	52.9619
1409.89	30.3527
1410.15	26.1839
1410.42	25.0732
1410.69	26.0393
1410.96	9.60773
1411.23	21.8786
1411.5	11.6345
1411.76	18.8669
1412.03	10.7738
1412.3	23.2569
1412.57	12.3973
1412.84	6.51901
1413.11	10.477
1413.37	13.062
1413.64	14.1508
1413.91	13.3577
1414.18	13.5714
1414.45	13.5639
1414.72	6.41327
1414.98	16.7029
1415.25	15.7044
1415.52	3.43085
1415.79	9.64224
1416.06	4.56006
1416.33	11.8035
1416.59	11.8631
1416.86	12.9504
1417.13	13.0088
1417.4	14.0796
1417.67	12.0529
1417.93	17.2227
1418.2	14.1828
1418.47	16.2595
1418.74	14.2397
1419.01	19.3705
1419.27	11.1147
1419.54	13.1256
1419.81	10.0078
1420.08	9.96637
1420.35	12.9994
1420.61	23.2243
1420.88	8.83954
1421.15	14.0042
1421.42	11.0171
1421.69	2.93945
1421.95	12.2993
1422.22	6.31793
1422.49	22.0115
1422.76	16.1733
1423.02	11.6458
1423.29	13.7133
1423.56	14.9723
1423.83	16.7381
1424.1	6.41409
1424.36	9.66849
1424.63	5.70291
1424.9	17.2001
1425.17	19.1151
1425.43	14.1687
1425.7	17.2442
1425.97	17.2191
1426.24	18.1818
1426.51	12.9911
1426.77	6.77063
1427.04	10.773
1427.31	6.5799
1427.58	11.6662
1427.84	12.686
1428.11	7.58942
1428.38	14.7956
1428.65	9.72272
1428.91	13.8751
1429.18	12.9202
1429.45	7.88376
1429.72	12.0862
1429.98	10.1308
1430.25	10.2374
1430.52	5.26443
1430.79	9.50754
1431.05	23.9601
1431.32	2.43848
1431.59	9.59735
1431.86	11.5956
1432.12	6.43384
1432.39	10.4774
1432.66	16.5307
1432.93	16.4197
1433.19	13.2379
1433.46	16.2438
1433.73	7.01001
1434	6.11349
1434.26	13.4051
1434.53	26.7621
1434.8	9.36734
1435.07	6.30884
1435.33	21.687
1435.6	8.36865
1435.87	3.24582
1436.13	16.5583
1436.4	11.4263
1436.67	14.4925
1436.94	-1.88712
1437.2	4.25171
1437.47	20.6378
1437.74	11.4525
1438	8.44446
1438.27	16.694
1438.54	14.6795
1438.81	13.6919
1439.07	19.9048
1439.34	15.8966
1439.61	20.1055
1439.87	3.77087
1440.14	9.96689
1440.41	8.96997
1440.67	12.083
1440.94	13.1129
1441.21	21.2882
1441.48	12.0483
1441.74	14.1718
1442.01	1.90347
1442.28	6.08334
1442.54	6.07986
1442.81	16.3035
1443.08	13.201
1443.34	7.03665
1443.61	9.09229
1443.88	8.09961
1444.15	7.17761
1444.41	13.4278
1444.68	13.5569
1444.95	14.5911
1445.21	6.37482
1445.48	13.5497
1445.75	18.6722
1446.01	11.4888
1446.28	11.4851
1446.55	10.4563
1446.81	21.7266
1447.08	16.5795
1447.35	10.4134
1447.61	25.8002
1447.88	8.44089
1448.15	8.53876
1448.41	16.7895
1448.68	12.7072
1448.95	12.704
1449.21	8.58377
1449.48	3.42758
1449.75	12.6194
1450.01	19.7876
1450.28	12.608
1450.55	10.5536
1450.81	7.47369
1451.08	20.7844
1451.35	10.5258
1451.61	7.44696
1451.88	12.573
1452.15	7.47415
1452.41	2.38223
1452.68	10.6348
1452.94	16.8386
1453.21	6.61899
1453.48	9.69202
1453.75	6.61725
1454.01	11.7602
1454.28	12.807
1454.54	9.74741
1454.81	9.74493
1455.08	10.7838
1455.34	9.83688
1455.61	17.0672
1455.88	9.91629
1456.14	17.0903
1456.41	11.9343
1456.68	4.72565
1456.94	5.74622
1457.21	14.9657
1457.47	12.9202
1457.74	7.81995
1458.01	5.79602
1458.27	15.0536
1458.54	8.94339
1458.8	5.89935
1459.07	12.0775
1459.34	18.2349
1459.6	7.98935
1459.87	15.1584
1460.13	15.153
1460.4	10.0192
1460.67	7.94971
1460.93	-0.262482
1461.2	17.1212
1461.47	7.87442
1461.73	6.815
1462	17.0063
1462.26	15.9348
1462.53	9.74442
1462.79	0.485596
1463.06	6.57129
1463.33	9.62952
1463.59	14.8378
1463.86	13.9904
1464.13	15.1475
1464.39	14.2755
1464.66	2.97293
1464.92	1.3353
1465.19	12.3058
1465.45	10.1966
1465.72	13.3889
1465.99	13.4118
1466.25	10.2356
1466.52	13.2333
1466.78	18.4005
1467.05	6.15851
1467.32	15.3361
1467.58	14.3186
1467.85	9.23141
1468.11	23.525
1468.38	2.10867
1468.64	8.2186
1468.91	5.14133
1469.18	9.18665
1469.44	12.1893
1469.71	1.95285
1469.97	-0.110107
1470.24	5.98669
1470.51	3.94107
1470.77	0.871277
1471.04	17.1257
1471.3	6.91241
1471.57	10.979
1471.83	13.0215
1472.1	6.92191
1472.36	20.1686
1472.63	4.89508
1472.9	7.92715
1473.16	7.89737
1473.43	8.89526
1473.69	3.7995
1473.96	15.0074
1474.22	14.0305
1474.49	5.93369
1474.75	5.95776
1475.02	11.0589
1475.28	15.1236
1475.55	10.0137
1475.82	14.0675
1476.08	-0.18396
1476.35	13.0165
1476.61	12.981
1476.88	1.78036
1477.14	5.85452
1477.41	4.84793
1477.67	6.87225
1477.94	7.85043
1478.2	9.8526
1478.47	9.82535
1478.73	10.8083
1479	5.68881
1479.27	3.61078
1479.53	10.6737
1479.79	9.57458
1480.06	7.46848
1480.32	6.40573
1480.59	6.38947
1480.85	11.4328
1481.12	14.507
1481.39	8.48361
1481.65	10.5868
1481.92	6.60748
1482.18	14.7988
1482.45	11.7799
1482.71	6.75192
1482.98	14.9174
1483.24	6.81662
1483.51	1.74963
1483.77	3.69653
1484.04	13.7017
1484.3	19.4967
1484.57	9.98108
1484.83	10.8173
1485.1	8.55902
1485.36	19.2862
1485.63	4.2955
1485.89	10.5269
1486.16	21.4038
1486.42	7.33029
1486.69	5.39233
1486.95	1.28516
1487.22	10.3454
1487.48	13.3545
1487.75	7.24771
1488.01	5.17606
1488.28	13.2169
1488.54	7.10034
1488.81	8.09244
1489.07	8.08252
1489.34	9.08832
1489.6	7.07822
1489.86	5.07144
1490.13	15.1734
1490.39	4.00583
1490.66	0.926788
1490.92	10.0107
1491.19	7.98984
1491.45	3.95895
1491.72	6.01379
1491.98	10.0681
1492.25	9.05823
1492.51	9.06293
1492.78	5.03888
1493.04	9.07852
1493.3	17.1681
1493.57	11.1213
1493.83	12.1673
1494.1	8.173
1494.36	14.2513
1494.63	7.15088
1494.89	17.1902
1495.16	11.0298
1495.42	0.851685
1495.69	6.86868
1495.95	4.82278
1496.22	1.77701
1496.48	7.8002
1496.74	3.77625
1497.01	14.8971
1497.27	10.8575
1497.54	0.773315
1497.8	2.81085
1498.07	10.9076
1498.33	9.92569
1498.59	5.91791
1498.86	11.0002
1499.12	11.0445
1499.39	11.0912
1499.65	8.09372
1499.92	3.06308
1500.18	11.1453
1500.44	10.1459
1500.71	11.1498
1500.97	7.05991
1501.24	9.07349
1501.5	7.06339
1501.77	4.04254
1502.03	5.04837
1502.29	12.0655
1502.56	9.99271
1502.82	7.96674
1503.09	8.92523
1503.35	2.88116
1503.62	8.98087
1503.88	5.98846
1504.14	-0.039917
1504.41	4.00101
1504.67	-1.05249
1504.93	5.98001
1505.2	6.93616
1505.46	10.8504
1505.73	3.78992
1505.99	12.8651
1506.26	4.82034
1506.52	10.938
1506.78	13.9882
1507.05	13.0138
1507.31	12.0251
1507.58	5.97672
1507.84	4.96365
1508.1	18.0825
1508.37	16.097
1508.63	9.06699
1508.89	14.1191
1509.16	9.09186
1509.42	12.1543
1509.69	13.2261
1509.95	6.12799
1510.21	6.08893
1510.48	10.0646
1510.74	7.98709
1511.01	13.931
1511.27	8.75504
1511.53	2.57312
1511.8	10.485
1512.06	4.32776
1512.32	4.26309
1512.59	2.20035
1512.85	3.15961
1513.12	14.1818
1513.38	8.21677
1513.64	5.35605
1513.91	2.40863
1514.17	7.41818
1514.43	10.3874
1514.7	5.29489
1514.96	2.22842
1515.22	9.17828
1515.49	6.09183
1515.75	12.0507
1516.02	1.00348
1516.28	8.01517
1516.54	1.99335
1516.81	9.01718
1517.07	5.02573
1517.33	14.0841
1517.6	12.1468
1517.86	2.15939
1518.12	6.20792
1518.39	7.24643
1518.65	3.27509
1518.91	14.3517
1519.18	20.405
1519.44	5.36993
1519.7	8.37262
1519.97	1.34393
1520.23	9.39484
1520.49	1.41324
1520.76	7.47729
1521.02	5.50128
1521.28	20.5608
1521.55	7.50885
1521.81	6.48917
1522.07	8.47574
1522.34	1.43799
1522.6	10.4341
1522.86	3.34833
1523.13	10.266
1523.39	3.17886
1523.65	9.13785
1523.92	10.0996
