#Acq. time (s)=	40
#Accumulations=	2
#Range (cm-¹)=	1200...2365
#Windows=	3
#Auto scanning=	Off
#Autofocus=	Off
#Macrospot=	Off
#AutoExposure=	Off
#Spike filter=	Multiple accum.
#Delay time (s)=	2
#Binning=	1
#Readout mode=	Signal
#DeNoise=	Off
#ICS correction=	On
#Dark correction=	Off
#Inst. Process=	Off
#Detector Gain=	Best Dynamic
#Detector ADC=	50 kHz EM
#Detector EM gain=	400
#Detector temperature (°C)=	-60.09
#Instrument=	LabRAM HR Evol
#Detector=	SIN-EM FIVIS
#Objective=	x100_VIS_LWD
#Grating=	1800 (450-850nm)
#ND Filter=	100%
#Laser=	532nm_Edge
#Hole=	30.0125
#Temperature=	0
#Range=	Visible
#StageXY=	75x50mm Scan+
#StageZ=	Z motor
#X (µm)=	0
#Y (µm)=	0
#Z (µm)=	10.2
#Full time(mm:ss)=	4:24
#Project=	21_11_26
#Sample=	BU32
#Site=	
#Title=	BU32-A-incC-FI03-V_1800 (450-850nm)_532nm_Edge_100%_x100_VIS_LWD_H30um_40sX2
#Remark=	
#Date=	26.11.2021 18:11
#Acquired=	26.11.2021 18:11:05
#Base:Fit=	16.12.2021 14:46:20
#Base:Sub=	16.12.2021 14:46:22
1202.72	-3.4715
1203	36.299
1203.28	18.4633
1203.56	28.1611
1203.84	-4.19846
1204.11	-23.4824
1204.39	7.81183
1204.67	-19.8173
1204.95	-0.115692
1205.23	-22.4875
1205.5	3.42038
1205.78	2.43854
1206.06	32.5627
1206.34	-14.6094
1206.61	1.54691
1206.89	-4.82758
1207.17	35.9507
1207.45	-8.95523
1207.73	14.7619
1208	14.9196
1208.28	44.0153
1208.56	35.6199
1208.84	-33.8041
1209.11	2.71033
1209.39	-35.6393
1209.67	1.99435
1209.95	-10.5901
1210.23	-11.4388
1210.5	12.2423
1210.78	4.82062
1211.06	-14.3358
1211.34	-5.6868
1211.61	30.6773
1211.89	-24.6981
1212.17	15.899
1212.45	13.8291
1212.72	16.0765
1213	9.78851
1213.28	26.9312
1213.56	-7.00259
1213.83	-11.079
1214.11	5.03232
1214.39	20.1988
1214.67	5.54871
1214.94	11.1136
1215.22	27.3134
1215.5	-0.153503
1215.78	-1.01086
1216.05	-18.9156
1216.33	17.3799
1216.61	-25.119
1216.89	1.49908
1217.16	-11.2191
1217.44	-6.88638
1217.72	17.6365
1218	-5.64786
1218.27	11.4512
1218.55	8.37653
1218.83	9.55341
1219.1	18.2007
1219.38	-9.2092
1219.66	20.6668
1219.94	-8.88858
1220.21	-18.307
1220.49	-2.20468
1220.77	14.9731
1221.04	-3.93982
1221.32	30.1523
1221.6	-14.2667
1221.88	3.875
1222.15	7.11798
1222.43	-18.2928
1222.71	13.4673
1222.98	1.78226
1223.26	7.04495
1223.54	-32.099
1223.81	-9.89041
1224.09	2.82062
1224.37	19.7452
1224.65	-15.0302
1224.92	-21.2638
1225.2	-30.638
1225.48	10.7011
1225.76	22.5549
1226.03	14.3413
1226.31	1.91229
1226.59	15.7921
1226.86	32.8289
1227.14	-13.5341
1227.42	20.3392
1227.69	24.486
1227.97	12.6022
1228.25	-10.6817
1228.52	18.7067
1228.8	23.6816
1229.08	-13.2966
1229.35	44.6271
1229.63	1.7977
1229.91	-8.66925
1230.18	6.89093
1230.46	-17.6175
1230.74	38.2098
1231.01	-6.86774
1231.29	-14.3413
1231.57	-5.59595
1231.84	-3.25333
1232.12	4.25125
1232.4	-23.9793
1232.67	-6.01431
1232.95	-4.82007
1233.23	14.218
1233.5	-12.9875
1233.78	1.85886
1234.06	-2.16769
1234.33	-5.12885
1234.61	7.67325
1234.89	20.499
1235.16	-11.8576
1235.44	-8.52414
1235.71	36.8642
1235.99	-10.242
1236.27	4.65741
1236.54	7.9458
1236.82	1.72159
1237.1	38.5788
1237.37	-40.206
1237.65	1.81393
1237.93	11.2394
1238.2	-10.8353
1238.48	16.4247
1238.76	4.85129
1239.03	-7.72748
1239.31	9.10492
1239.58	-6.55219
1239.86	-22.1919
1240.14	10.4053
1240.41	-1.0105
1240.69	-32.3294
1240.97	22.3174
1241.24	23.5177
1241.52	-3.59543
1241.79	-3.51044
1242.07	13.3013
1242.35	-14.9214
1242.62	34.462
1242.9	3.17456
1243.18	21.1787
1243.45	0.396759
1243.73	-11.0204
1244	-21.381
1244.28	9.16779
1244.56	-5.39679
1244.83	-12.6467
1245.11	3.14862
1245.39	5.26178
1245.66	-13.5963
1245.94	-32.4859
1246.21	-8.4317
1246.49	26.1629
1246.76	46.1246
1247.04	29.4905
1247.32	-5.9968
1247.59	-13.251
1247.87	1.50073
1248.14	10.9786
1248.42	64.2664
1248.7	15.1165
1248.97	25.6584
1249.25	-2.44659
1249.52	9.19656
1249.8	-18.9697
1250.08	16.6795
1250.35	30.3844
1250.63	4.24442
1250.9	-21.907
1251.18	-13.5398
1251.45	-6.21039
1251.73	9.48367
1252.01	17.8604
1252.28	-32.2578
1252.56	13.7084
1252.83	-23.8653
1253.11	-10.289
1253.39	-13.4072
1253.66	22.1247
1253.94	19.0902
1254.21	12.997
1254.49	-8.74362
1254.76	24.8554
1255.04	16.634
1255.31	6.28415
1255.59	14.7652
1255.87	7.54587
1256.14	-7.005
1256.42	6.67944
1256.69	-0.50592
1256.97	20.5377
1257.24	-12.7771
1257.52	-16.8908
1257.79	43.707
1258.07	-3.24155
1258.35	-6.32187
1258.62	8.34396
1258.9	4.20114
1259.17	4.1796
1259.45	1.12134
1259.72	1.25659
1260	30.6356
1260.27	-16.0839
1260.55	12.0792
1260.82	22.4886
1261.1	22.4009
1261.37	9.84833
1261.65	-3.70529
1261.92	-5.65121
1262.2	-10.4026
1262.48	-26.4842
1262.75	21.9811
1263.02	1.45062
1263.3	12.4671
1263.58	12.3348
1263.85	-10.1048
1264.13	8.05997
1264.4	8.56076
1264.68	-16.2428
1264.95	-19.5732
1265.23	20.1123
1265.5	-0.717743
1265.78	11.8574
1266.05	-2.78033
1266.33	6.69348
1266.6	42.3258
1266.88	18.4254
1267.15	-20.0921
1267.43	0.987305
1267.7	-18.694
1267.98	47.4042
1268.25	-7.82651
1268.53	29.0774
1268.8	4.18295
1269.08	47.2867
1269.35	-17.5214
1269.63	23.4642
1269.9	13.0264
1270.18	5.66028
1270.45	25.4869
1270.73	47.44
1271	1.33215
1271.28	4.46106
1271.55	14.9612
1271.83	12.8722
1272.1	23.4353
1272.38	-0.465332
1272.65	17.521
1272.93	18.8081
1273.2	-13.4849
1273.47	13.9355
1273.75	39.2766
1274.03	6.96359
1274.3	23.9236
1274.57	7.27997
1274.85	23.0969
1275.12	-0.986145
1275.4	20.0549
1275.67	14.9208
1275.95	48.6304
1276.22	17.2949
1276.5	8.0177
1276.77	28.1059
1277.05	12.5053
1277.32	6.32626
1277.6	-7.16074
1277.87	32.9293
1278.14	45.712
1278.42	-18.2538
1278.69	15.5257
1278.97	11.5068
1279.24	13.7404
1279.52	38.0678
1279.79	28.6305
1280.07	16.0262
1280.34	24.4418
1280.61	-7.07156
1280.89	26.6749
1281.16	6.789
1281.44	2.74683
1281.71	30.3044
1281.99	8.31787
1282.26	6.25723
1282.53	10.5638
1282.81	-5.12308
1283.08	24.332
1283.36	12.5839
1283.63	-1.42404
1283.91	14.2303
1284.18	11.1203
1284.45	13.5142
1284.73	9.23541
1285	33.604
1285.28	5.19666
1285.55	12.4051
1285.83	28.0937
1286.1	-8.69571
1286.37	-9.60449
1286.65	22.0351
1286.92	11.4709
1287.2	-13.7536
1287.47	18.9075
1287.75	12.5751
1288.02	-0.084137
1288.29	-8.50043
1288.57	14.6966
1288.84	-18.9181
1289.12	-3.05164
1289.39	11.7992
1289.66	2.45346
1289.94	14.1664
1290.21	-13.0744
1290.49	2.84854
1290.76	11.3224
1291.03	-16.0643
1291.31	-11.8267
1291.58	13.4918
1291.86	5.10907
1292.13	-22.2428
1292.4	20.989
1292.68	7.37347
1292.95	-2.08374
1293.22	0.0352173
1293.5	0.104492
1293.77	2.40063
1294.05	-13.1807
1294.32	10.2428
1294.59	29.323
1294.87	3.00714
1295.14	12.5126
1295.42	39.0059
1295.69	16.0404
1295.96	-13.2257
1296.24	-5.48221
1296.51	7.42453
1296.79	12.8016
1297.06	18.1439
1297.33	-15.6812
1297.61	11.7659
1297.88	10.6631
1298.15	12.7189
1298.43	33.7652
1298.7	16.9672
1298.97	10.6394
1299.25	11.6658
1299.52	21.1505
1299.79	15.8434
1300.07	-13.6729
1300.34	20.2289
1300.62	9.7612
1300.89	26.7115
1301.16	9.84042
1301.44	10.9231
1301.71	26.8268
1301.98	22.724
1302.25	-9.90341
1302.53	7.07721
1302.8	-1.31741
1303.08	4.00153
1303.35	42.041
1303.62	11.4035
1303.9	17.7019
1304.17	-21.3407
1304.44	1.94217
1304.72	3.04163
1304.99	-18.0404
1305.26	-5.37918
1305.54	4.08813
1305.81	10.3633
1306.08	-1.30096
1306.35	4.96478
1306.63	2.81067
1306.9	5.97766
1307.18	-14.0194
1307.45	-3.39331
1307.72	-2.28415
1308	25.1746
1308.27	2.00885
1308.54	-1.09018
1308.81	-20.0596
1309.09	-17.886
1309.36	-1.95474
1309.63	-0.79718
1309.91	-23.9086
1310.18	28.939
1310.45	-25.9091
1310.73	16.3165
1311	10.0265
1311.27	10.0867
1311.55	4.87479
1311.82	10.213
1312.09	9.23471
1312.37	1.96237
1312.64	-12.715
1312.91	41.2073
1313.18	2.15985
1313.46	-7.36981
1313.73	16.9367
1314	-3.11948
1314.28	-8.38788
1314.55	-32.6252
1314.82	15.9963
1315.09	11.8587
1315.37	-22.8875
1315.64	-3.79065
1315.91	19.5405
1316.18	-18.3845
1316.46	0.64975
1316.73	-4.61792
1317	14.4138
1317.28	30.2826
1317.55	-12.9761
1317.82	0.855072
1318.09	-43.4279
1318.37	-1.10699
1318.64	42.2646
1318.91	33.864
1319.18	-10.4656
1319.46	-15.7197
1319.73	17.052
1320	20.2449
1320.28	12.9206
1320.55	7.68399
1320.82	20.3767
1321.09	16.1264
1321.37	29.7946
1321.64	-19.9149
1321.91	-5.22974
1322.18	-3.15616
1322.46	-6.40216
1322.73	-4.31046
1323	24.1449
1323.27	-3.29892
1323.55	21.9607
1323.82	10.4548
1324.09	-0.0302429
1324.36	21.1064
1324.64	14.8059
1324.91	33.8331
1325.18	10.6623
1325.45	5.45816
1325.73	21.1995
1326	16.8207
1326.27	5.01849
1326.54	20.5346
1326.81	18.3381
1327.09	9.92752
1327.36	10.1145
1327.63	16.7637
1327.9	-15.6943
1328.18	10.8371
1328.45	1.56015
1328.72	3.87833
1328.99	24.1011
1329.27	-0.0826416
1329.54	-18.0301
1329.81	-10.5609
1330.08	13.7264
1330.35	6.34583
1330.63	20.0416
1330.9	3.12527
1331.17	5.17102
1331.44	20.8918
1331.71	13.3815
1331.99	29.0255
1332.26	-16.3645
1332.53	-2.75674
1332.8	-18.6294
1333.07	8.61725
1333.35	-12.5285
1333.62	-3.1644
1333.89	23.0168
1334.16	0.866241
1334.43	10.2391
1334.71	1.76361
1334.98	11.1462
1335.25	17.391
1335.52	-13.0851
1335.79	27.7919
1336.07	8.87131
1336.34	15.1311
1336.61	-9.0126
1336.88	24.5217
1337.15	7.73618
1337.43	17.1694
1337.7	18.2202
1337.97	20.3077
1338.24	37.0018
1338.51	51.6004
1338.78	-28.0311
1339.06	2.31219
1339.33	33.7195
1339.6	-4.99561
1339.87	5.53232
1340.14	44.343
1340.42	-23.6742
1340.69	27.6972
1340.96	7.85477
1341.23	28.8322
1341.5	35.136
1341.77	-17.2133
1342.04	46.6508
1342.32	1.60049
1342.59	-13.104
1342.86	37.0525
1343.13	32.7876
1343.4	44.2702
1343.67	31.7251
1343.95	9.78821
1344.22	43.2924
1344.49	20.3337
1344.76	29.788
1345.03	38.1537
1345.3	38.1188
1345.58	26.5566
1345.85	37.95
1346.12	-6.00647
1346.39	55.5127
1346.66	13.5576
1346.93	42.6781
1347.2	55.0978
1347.47	22.658
1347.75	17.3615
1348.02	21.4914
1348.29	15.2218
1348.56	5.84476
1348.83	29.825
1349.1	52.7196
1349.37	1.62341
1349.65	4.70624
1349.92	45.2848
1350.19	18.1693
1350.46	7.72211
1350.73	24.3384
1351	32.5952
1351.27	46.0458
1351.54	31.4482
1351.81	13.6942
1352.09	31.3804
1352.36	-14.3374
1352.63	3.43234
1352.9	22.2911
1353.17	45.3618
1353.44	21.5445
1353.71	12.5937
1353.98	44.3208
1354.25	28.298
1354.53	49.4991
1354.8	-2.89188
1355.07	6.54959
1355.34	21.1764
1355.61	8.59766
1355.88	10.6385
1356.15	23.2971
1356.42	40.0002
1356.69	24.3615
1356.96	-3.68433
1357.24	18.1331
1357.51	33.7102
1357.78	27.4636
1358.05	37.8185
1358.32	-4.77716
1358.59	-0.658478
1358.86	34.594
1359.13	37.6564
1359.4	2.34366
1359.67	19.957
1359.94	35.4986
1360.22	30.2397
1360.49	36.3672
1360.76	20.7402
1361.03	-1.05426
1361.3	11.3861
1361.57	18.6743
1361.84	44.5965
1362.11	12.5058
1362.38	-10.2858
1362.65	15.6019
1362.92	24.9218
1363.19	39.4461
1363.46	20.8816
1363.73	1.32605
1364	19.032
1364.28	23.2756
1364.55	64.7502
1364.82	-8.77988
1365.09	39.8984
1365.36	25.363
1365.63	7.70789
1365.9	12.8253
1366.17	14.8406
1366.44	18.9255
1366.71	38.5186
1366.98	7.40836
1367.25	25.9106
1367.52	-14.4221
1367.79	24.8535
1368.06	6.35364
1368.33	38.4755
1368.6	8.57159
1368.87	17.9477
1369.15	30.4258
1369.41	38.7803
1369.68	-6.63806
1369.95	51.2545
1370.23	46.0774
1370.5	8.85825
1370.77	41.8597
1371.04	33.5792
1371.31	30.4418
1371.58	-20.2446
1371.85	38.5156
1372.12	-14.2545
1372.39	41.3435
1372.66	34.0085
1372.93	-11.4305
1373.2	8.13135
1373.47	22.55
1373.74	3.99014
1374.01	8.1142
1374.28	17.3976
1374.55	25.6554
1374.82	34.9448
1375.09	37.016
1375.36	23.6142
1375.63	8.22745
1375.9	32.0232
1376.17	47.5119
1376.44	29.0412
1376.71	37.2125
1376.98	36.1172
1377.25	54.541
1377.52	46.1584
1377.79	26.7116
1378.06	42.3144
1378.33	71.3799
1378.6	36.6419
1378.87	78.1762
1379.14	50.4701
1379.41	79.3679
1379.68	51.5163
1379.95	52.5269
1380.22	78.2383
1380.49	76.0111
1380.76	61.248
1381.03	49.7564
1381.3	52.713
1381.57	57.982
1381.84	46.5945
1382.11	72.1199
1382.38	88.3589
1382.65	82.032
1382.92	79.8438
1383.19	78.6736
1383.46	77.5554
1383.73	119.505
1384	83.5696
1384.27	42.5375
1384.54	77.4601
1384.81	39.6144
1385.08	74.6147
1385.34	15.3026
1385.61	80.1733
1385.88	57.7726
1386.15	27.1256
1386.42	67.2807
1386.69	37.6449
1386.96	50.0631
1387.23	68.5934
1387.5	84.6729
1387.77	46.8683
1388.04	31.8059
1388.31	75.5398
1388.58	76.1711
1388.85	35.9992
1389.12	34.5529
1389.39	30.7809
1389.66	44.2143
1389.93	10.4306
1390.2	10.3347
1390.46	16.2025
1390.73	20.194
1391	16.1264
1391.27	60.071
1391.54	24.2087
1391.81	-1.4017
1392.08	-10.6686
1392.35	33.3189
1392.62	16.8827
1392.89	14.8107
1393.16	37.3231
1393.43	12.7534
1393.7	26.0655
1393.97	44.4965
1394.23	7.66748
1394.5	11.7808
1394.77	5.66473
1395.04	22.0689
1395.31	-1.36932
1395.58	21.2673
1395.85	35.7004
1396.12	28.6072
1396.39	8.17126
1396.66	30.7034
1396.93	6.13861
1397.2	29.6702
1397.46	-8.21844
1397.73	19.3747
1398	13.2468
1398.27	20.4524
1398.54	28.716
1398.81	-9.03146
1399.08	6.39423
1399.35	1.35181
1399.62	-1.59579
1399.89	7.7114
1400.16	15.9915
1400.42	28.3207
1400.69	-20.7015
1400.96	21.4308
1401.23	-18.4036
1401.5	-11.1995
1401.77	-8.02682
1402.04	-21.2926
1402.31	16.799
1402.58	11.9715
1402.84	1.00354
1403.11	0.214386
1403.38	20.9289
1403.65	22.0743
1403.92	12.8906
1404.19	26.1975
1404.46	-0.673096
1404.73	-6.71573
1404.99	23.0515
1405.26	-1.56836
1405.53	-19.0257
1405.8	27.0971
1406.07	29.1213
1406.34	-10.878
1406.61	-6.76886
1406.87	-8.79959
1407.14	17.921
1407.41	11.8543
1407.68	-3.43433
1407.95	-31.038
1408.22	6.97214
1408.49	20.3782
1408.76	-3.12799
1409.02	20.541
1409.29	0.121765
1409.56	4.31113
1409.83	9.52563
1410.1	7.55002
1410.37	13.7586
1410.63	21.9314
1410.9	12.6353
1411.17	-13.071
1411.44	-33.6081
1411.71	-11.0796
1411.98	-20.3009
1412.25	-4.89508
1412.51	6.4863
1412.78	13.8351
1413.05	-18.6608
1413.32	-10.945
1413.59	-9.61722
1413.86	3.46994
1414.12	8.09698
1414.39	-2.01102
1414.66	1.3978
1414.93	8.83197
1415.2	17.0704
1415.47	-19.8208
1415.73	-16.6856
1416	13.154
1416.27	-19.6146
1416.54	19.4968
1416.81	26.7823
1417.07	4.28543
1417.34	-19.2375
1417.61	34.2861
1417.88	2.53625
1418.15	-3.55173
1418.42	27.3373
1418.68	-18.8335
1418.95	2.82034
1419.22	0.823975
1419.49	17.3296
1419.76	-7.32565
1420.02	-15.5673
1420.29	-13.5391
1420.56	1.84589
1420.83	-8.45383
1421.1	15.1248
1421.36	-4.40323
1421.63	-16.7023
1421.9	-2.25555
1422.17	-10.3058
1422.44	-6.00763
1422.7	12.6769
1422.97	28.3802
1423.24	-3.08084
1423.51	16.9014
1423.77	16.9657
1424.04	17.1447
1424.31	-4.22018
1424.58	-13.7812
1424.85	1.64368
1425.11	19.2389
1425.38	-16.3006
1425.65	0.21521
1425.92	10.4666
1426.19	1.43396
1426.45	25.0519
1426.72	-27.2798
1426.99	-15.0207
1427.26	4.40112
1427.52	19.7058
1427.79	3.19302
1428.06	-5.08212
1428.33	10.2654
1428.59	5.17285
1428.86	19.5675
1429.13	31.9349
1429.4	4.3772
1429.67	2.43143
1429.93	20.9881
1430.2	23.1844
1430.47	0.808899
1430.74	9.15146
1431	-19.3761
1431.27	29.0648
1431.54	50.8206
1431.81	18.1115
1432.07	10.9828
1432.34	20.1955
1432.61	3.73239
1432.87	0.646393
1433.14	6.72861
1433.41	23.0284
1433.68	8.55264
1433.95	-20.2396
1434.21	-10.0406
1434.48	0.212799
1434.75	27.0945
1435.01	25.1916
1435.28	17.0667
1435.55	17.1237
1435.82	2.82224
1436.08	20.2769
1436.35	-5.3111
1436.62	1.88705
1436.89	3.95215
1437.15	18.3073
1437.42	-19.5741
1437.69	-2.11813
1437.95	25.543
1438.22	8.16528
1438.49	37.942
1438.76	-5.98108
1439.02	13.5747
1439.29	56.6704
1439.56	-2.67297
1439.82	0.51889
1440.09	6.8165
1440.36	22.3663
1440.63	-6.23526
1440.89	11.2762
1441.16	8.26093
1441.43	31.9257
1441.69	12.463
1441.96	36.0286
1442.23	-2.9133
1442.49	31.063
1442.76	3.44205
1443.03	17.938
1443.3	27.1679
1443.56	22.0207
1443.83	23.0385
1444.1	12.7981
1444.36	43.5894
1444.63	19.0681
1444.9	4.88895
1445.16	28.6355
1445.43	10.361
1445.7	6.27643
1445.97	9.3689
1446.23	-14.206
1446.5	0.174835
1446.77	17.6339
1447.03	11.5013
1447.3	48.4403
1447.57	11.534
1447.83	-3.84442
1448.1	20.773
1448.37	9.54697
1448.63	34.2829
1448.9	-6.58746
1449.17	15.0299
1449.43	15.078
1449.7	28.4286
1449.97	26.3749
1450.23	-3.37585
1450.5	33.5161
1450.77	21.2316
1451.03	31.5016
1451.3	6.92276
1451.57	12.065
1451.83	-10.4675
1452.1	12.0891
1452.37	12.1104
1452.63	35.71
1452.9	4.00916
1453.17	-2.065
1453.43	22.6283
1453.7	18.6235
1453.97	-4.89056
1454.23	-2.81583
1454.5	41.2778
1454.77	7.51566
1455.03	10.644
1455.3	13.7592
1455.56	38.3758
1455.83	0.526093
1456.1	-18.8217
1456.36	12.0164
1456.63	30.518
1456.9	27.4598
1457.16	16.1676
1457.43	1.80951
1457.7	-9.43729
1457.96	17.2245
1458.23	3.94339
1458.49	21.4133
1458.76	15.3303
1459.03	10.2848
1459.29	2.16156
1459.56	-15.1891
1459.82	19.7083
1460.09	27.9414
1460.36	4.40274
1460.62	18.7681
1460.89	-24.2371
1461.16	-21.1531
1461.42	-0.668213
1461.69	6.49997
1461.95	-0.67395
1462.22	10.5712
1462.49	32.0411
1462.75	9.49283
1463.02	21.7324
1463.28	3.27518
1463.55	3.22964
1463.82	-19.2974
1464.08	-5.96796
1464.35	-11.9273
1464.61	16.9553
1464.88	11.0172
1465.15	1.02457
1465.41	-13.5601
1465.68	-6.04785
1465.94	-11.4248
1466.21	4.91614
1466.48	5.09439
1466.74	13.2732
1467.01	20.2833
1467.27	12.1172
1467.54	6.08786
1467.8	24.4767
1468.07	20.4174
1468.34	0.0490417
1468.6	9.2738
1468.87	24.6166
1469.13	14.4436
1469.4	-20.2225
1469.67	-6.96118
1469.93	-21.2599
1470.2	24.5712
1470.46	9.25418
1470.73	5.17276
1470.99	23.5163
1471.26	-6.00986
1471.53	-8.05075
1471.79	11.2743
1472.06	5.15829
1472.32	-0.929749
1472.59	14.3798
1472.85	-14.0913
1473.12	-18.1249
1473.39	-25.23
1473.65	6.32309
1473.92	22.5983
1474.18	42.9522
1474.45	-2.82327
1474.71	17.5792
1474.98	-1.66934
1475.24	-3.62772
1475.51	10.6777
1475.78	-7.60504
1476.04	20.9055
1476.31	6.65311
1476.57	5.64609
1476.84	-9.6001
1477.1	-5.54352
1477.37	40.2102
1477.63	-3.5072
1477.9	-10.5899
1478.16	-8.51584
1478.43	11.8254
1478.69	27.0443
1478.96	-11.5948
1479.22	5.67526
1479.49	10.7368
1479.76	21.8849
1480.02	13.7172
1480.29	11.6485
1480.55	-0.632202
1480.82	-3.74286
1481.08	-7.83035
1481.35	-41.2995
1481.61	6.36823
1481.88	3.41171
1482.14	16.7175
1482.41	-22.7378
1482.67	2.76773
1482.94	25.2167
1483.2	8.00522
1483.47	-18.2954
1483.73	-15.1742
1484	14.325
1484.26	9.28281
1484.53	19.317
1484.79	-14.3455
1485.06	10.626
1485.32	6.07153
1485.59	38.2936
1485.85	2.62628
1486.12	-30.8366
1486.38	-9.40131
1486.65	24.251
1486.91	16.7617
1487.18	1.8251
1487.44	-33.5337
1487.71	6.93066
1487.97	7.89832
1488.24	-8.31357
1488.5	-13.3914
1488.77	29.0912
1489.03	6.7695
1489.3	6.74219
1489.56	-9.44339
1489.83	9.79459
1490.09	-4.34842
1490.36	12.8955
1490.62	5.85629
1490.89	30.1319
1491.15	-13.3926
1491.42	-0.275543
1491.68	-2.28745
1491.95	-16.4111
1492.21	11.9438
1492.48	-0.122498
1492.74	13.0556
1493	-28.3678
1493.27	-2.04819
1493.53	16.1958
1493.8	22.2798
1494.06	-0.937317
1494.33	8.21329
1494.59	4.24454
1494.86	-17.9155
1495.12	20.5333
1495.39	0.297791
1495.65	10.3335
1495.92	-18.0505
1496.18	-7.00418
1496.45	32.3491
1496.71	8.1084
1496.97	30.3128
1497.24	5.06955
1497.5	-13.0537
1497.77	22.3147
1498.03	7.19971
1498.3	15.3109
1498.56	-1.79477
1498.82	9.36264
1499.09	2.3588
1499.35	12.5164
1499.62	9.56219
1499.88	-6.50626
1500.15	12.7558
1500.41	27.9616
1500.68	8.82321
1500.94	20.9709
1501.2	4.8522
1501.47	-8.26654
1501.73	2.8063
1502	-12.3094
1502.26	8.91766
1502.52	17.021
1502.79	-0.124939
1503.05	-19.3299
1503.32	-4.22928
1503.58	29.0509
1503.85	-4.25348
1504.11	-20.3414
1504.37	21.0852
1504.64	13.0831
1504.9	30.2761
1505.17	-5.99973
1505.43	23.2469
1505.7	10.1229
1505.96	9.04645
1506.22	6.93314
1506.49	22.0633
1506.75	-4.09659
1507.02	17.1234
1507.28	-4.93854
1507.54	0.161011
1507.81	23.4019
1508.07	10.3442
1508.34	-22.8896
1508.6	18.4463
1508.86	21.523
1509.13	0.423553
1509.39	3.49826
1509.66	10.5916
1509.92	14.6661
1510.18	17.7801
1510.45	1.72757
1510.71	-14.4249
1510.98	-19.4907
1511.24	2.62561
1511.5	14.6428
1511.77	8.48343
1512.03	-0.73764
1512.29	-11.9593
1512.56	-2.05362
1512.82	-1.16977
1513.08	6.80701
1513.35	-6.2934
1513.61	-11.343
1513.88	21.7965
1514.14	-11.1946
1514.4	13.1058
1514.67	-17.9502
1514.93	-9.91299
1515.2	3.09863
1515.46	-19.05
1515.72	-3.04205
1515.99	3.90732
1516.25	13.8634
1516.51	-30.3052
1516.78	16.8345
1517.04	12.8352
1517.3	-16.2241
1517.57	-30.2265
1517.83	-8.11783
1518.09	7.99811
1518.36	19.1478
1518.62	-4.85651
1518.88	-16.8203
1519.15	1.30182
1519.41	12.4157
1519.67	11.4888
1519.94	41.6523
1520.2	3.56171
1520.47	0.560059
1520.73	1.57941
1520.99	-13.4014
1521.26	-0.276825
1521.52	1.80933
1521.78	0.863892
1522.05	25.9762
1522.31	-4.11639
1522.57	-5.11917
1522.84	-0.106812
1523.1	-0.104248
