#Acq. time (s)=	30
#Accumulations=	2
#Range (cm-¹)=	1200...2999
#Windows=	5
#Auto scanning=	Off
#Autofocus=	Off
#Macrospot=	Off
#AutoExposure=	Off
#Spike filter=	Multiple accum.
#Delay time (s)=	2
#Binning=	1
#Readout mode=	Signal
#DeNoise=	Off
#ICS correction=	On
#Dark correction=	Off
#Inst. Process=	Off
#Detector Gain=	Best Dynamic
#Detector ADC=	50 kHz EM
#Detector EM gain=	150
#Detector temperature (°C)=	-60.09
#Instrument=	LabRAM HR Evol
#Detector=	SIN-EM FIVIS
#Objective=	x100_VIS_LWD
#Grating=	1800 (450-850nm)
#ND Filter=	100%
#Laser=	532nm_Edge
#Hole=	30.0125
#Temperature=	40
#Range=	Visible
#StageXY=	75x50mm Scan+
#StageZ=	Z motor
#X (µm)=	0
#Y (µm)=	0
#Z (µm)=	65
#Full time(mm:ss)=	5:33
#Project=	21_08_11
#Sample=	BU32
#Site=	
#Title=	BU32-B-FF2-FI02-V_1800 (450-850nm)_532nm_Edge_100%_x100_VIS_LWD_H30um_30sX2
#Remark=	
#Date=	13.08.2021 16:12
#Acquired=	13.08.2021 16:12:23
#Base:Fit=	16.12.2021 15:06:42
#Base:Sub=	16.12.2021 15:06:44
1200.05	14.4241
1200.33	0.350983
1200.61	-4.04126
1200.89	-6.3938
1201.16	-3.3876
1201.44	8.27252
1201.72	4.99228
1202	9.47495
1202.28	15.3676
1202.55	0.490631
1202.83	8.90393
1203.11	9.74609
1203.39	2.04086
1203.67	5.16116
1203.94	13.7697
1204.22	14.9182
1204.5	-1.25269
1204.78	7.23602
1205.06	10.3304
1205.33	-8.06534
1205.61	10.0327
1205.89	8.81091
1206.17	10.8069
1206.44	-0.0577087
1206.72	6.25082
1207	5.10498
1207.28	10.3925
1207.55	2.85724
1207.83	2.80646
1208.11	-5.83682
1208.39	-5.9126
1208.67	11.1273
1208.94	3.6138
1209.22	10.0314
1209.5	7.88126
1209.78	11.0375
1210.05	0.229309
1210.33	-2.02759
1210.61	2.14813
1210.89	-3.29874
1211.16	6.21753
1211.44	12.497
1211.72	3.84866
1212	0.571716
1212.27	-1.64075
1212.55	0.405121
1212.83	5.67618
1213.11	-12.4529
1213.38	-5.05356
1213.66	3.4928
1213.94	6.71851
1214.22	4.61264
1214.49	-2.82388
1214.77	2.5043
1215.05	4.63431
1215.33	-1.75824
1215.6	7.7525
1215.88	-7.24625
1216.16	-3.12064
1216.44	7.3887
1216.71	1.98492
1216.99	-12.968
1217.27	0.758881
1217.54	2.81992
1217.82	-3.60828
1218.1	1.64218
1218.38	-3.68848
1218.65	-7.93765
1218.93	9.0246
1219.21	0.515045
1219.49	0.467957
1219.76	-5.89127
1220.04	4.73682
1220.32	5.79593
1220.59	6.84323
1220.87	-10.1679
1221.15	8.87521
1221.43	11.9734
1221.7	-9.33365
1221.98	-2.05463
1222.26	-5.38229
1222.53	7.16733
1222.81	-4.60382
1223.09	-3.67462
1223.36	-1.6601
1223.64	5.62851
1223.92	6.61389
1224.2	5.50949
1224.47	-4.02359
1224.75	0.204651
1225.03	0.259125
1225.3	0.317352
1225.58	2.49051
1225.86	-5.95206
1226.13	0.37619
1226.41	-1.77841
1226.69	-8.15262
1226.96	-1.9678
1227.24	-7.5354
1227.52	8.06781
1227.79	-1.59052
1228.07	6.52637
1228.35	-6.33887
1228.63	-3.21292
1228.9	0.735474
1229.18	-2.70648
1229.45	0.219971
1229.73	4.12
1230.01	8.21045
1230.28	19.8607
1230.56	-2.39502
1230.84	-1.00729
1231.11	7.48624
1231.39	-8.2648
1231.67	4.35434
1231.94	-3.0271
1232.22	11.6924
1232.5	5.38846
1232.77	4.32016
1233.05	-5.12717
1233.33	-1.94049
1233.6	1.26028
1233.88	4.46313
1234.16	-1.77466
1234.43	-0.645752
1234.71	1.50192
1234.99	8.90906
1235.26	-5.74768
1235.54	7.96893
1235.82	2.72775
1236.09	-9.91168
1236.37	-3.63892
1236.65	1.5639
1236.92	-10.0888
1237.2	7.66299
1237.47	10.7053
1237.75	-5.14523
1238.03	1.04431
1238.3	-2.18396
1238.58	-4.3233
1238.86	15.5674
1239.13	10.3056
1239.41	-4.37595
1239.68	-0.177063
1239.96	19.7539
1240.24	4.05789
1240.51	0.948639
1240.79	-1.11548
1241.07	-7.41202
1241.34	5.12082
1241.62	-2.23917
1241.89	-6.41135
1242.17	3.06125
1242.45	10.4586
1242.72	4.24011
1243	11.5945
1243.27	8.46713
1243.55	14.7978
1243.83	-3.00568
1244.1	5.3761
1244.38	3.26544
1244.65	-9.36212
1244.93	3.14331
1245.21	-5.33279
1245.48	2.94614
1245.76	5.00214
1246.03	-3.38065
1246.31	2.9155
1246.59	7.11649
1246.86	7.10657
1247.14	-7.53836
1247.41	0.820374
1247.69	2.81241
1247.97	5.89078
1248.24	1.70599
1248.52	0.695251
1248.79	-0.306519
1249.07	13.291
1249.34	-10.7608
1249.62	7.04016
1249.9	-1.37198
1250.17	6.9212
1250.45	-8.81781
1250.72	13.0785
1251	5.72015
1251.27	-7.90167
1251.55	-5.85541
1251.83	-1.72263
1252.1	3.45215
1252.38	-1.82114
1252.65	6.4805
1252.93	0.200134
1253.2	2.30334
1253.48	9.67725
1253.76	-0.67749
1254.03	0.457123
1254.31	3.64145
1254.58	7.83856
1254.86	8.92694
1255.13	7.90286
1255.41	12.0802
1255.68	10.0237
1255.96	10.0674
1256.23	9.09412
1256.51	-0.267944
1256.79	-3.39822
1257.06	-8.65189
1257.34	2.82297
1257.61	-0.317474
1257.89	8.02481
1258.16	12.1849
1258.44	1.67584
1258.71	4.81015
1258.99	13.2222
1259.27	-5.51566
1259.54	-2.19934
1259.82	15.4796
1260.09	6.02185
1260.37	2.78067
1260.64	1.66867
1260.92	21.4478
1261.19	2.71033
1261.47	11.3745
1261.74	16.0136
1262.02	2.77728
1262.29	14.7425
1262.57	26.8575
1262.84	26.6256
1263.12	20.7512
1263.39	49.2502
1263.67	45.4315
1263.94	58.2749
1264.22	58.0267
1264.49	55.8436
1264.77	51.6763
1265.04	32.8617
1265.32	36.983
1265.59	10.8744
1265.87	14.0504
1266.14	21.4294
1266.42	13.1518
1266.7	10.1141
1266.97	11.2708
1267.24	-1.16171
1267.52	3.15182
1267.79	5.41071
1268.07	2.42279
1268.35	3.55765
1268.62	8.87024
1268.89	3.69525
1269.17	11.0361
1269.44	12.0263
1269.72	16.1286
1269.99	2.45523
1270.27	11.8134
1270.54	10.7208
1270.82	14.8977
1271.09	15.9182
1271.37	4.44379
1271.64	23.3761
1271.92	2.55807
1272.19	6.89346
1272.47	4.91125
1272.74	11.3071
1273.02	14.5641
1273.29	22.0141
1273.57	17.9339
1273.84	-0.865326
1274.12	10.7113
1274.39	17.0116
1274.66	6.54022
1274.94	9.74023
1275.21	29.7482
1275.49	18.288
1275.76	3.69604
1276.04	13.2267
1276.31	13.3135
1276.59	12.3312
1276.86	10.3329
1277.14	12.5385
1277.41	3.18298
1277.69	13.7824
1277.96	10.7094
1278.23	7.67648
1278.51	1.44043
1278.78	12.0428
1279.06	2.57477
1279.33	9.93039
1279.61	9.90442
1279.88	14.1114
1280.15	12.054
1280.43	29.9816
1280.7	18.515
1280.98	22.861
1281.25	22.9373
1281.53	29.2589
1281.8	42.9926
1282.08	34.6437
1282.35	60.9251
1282.62	83.9224
1282.9	157.14
1283.17	201.078
1283.45	299.889
1283.72	418.807
1284	708.212
1284.27	980.272
1284.54	994.06
1284.82	716.427
1285.09	437.035
1285.37	235.95
1285.64	161.332
1285.91	84.4907
1286.19	65.4658
1286.46	67.5855
1286.74	47.5788
1287.01	47.5436
1287.28	43.2829
1287.56	33.784
1287.83	27.4818
1288.11	25.4056
1288.38	12.8168
1288.66	29.728
1288.93	24.5482
1289.2	17.2627
1289.48	22.6199
1289.75	19.545
1290.02	31.1592
1290.3	17.4425
1290.57	10.0662
1290.85	7.97217
1291.12	5.88068
1291.39	22.7387
1291.67	22.7558
1291.94	15.4249
1292.22	4.89893
1292.49	19.6297
1292.76	11.2361
1293.04	15.5698
1293.31	15.737
1293.59	18.013
1293.86	7.54742
1294.13	9.67142
1294.41	21.2715
1294.68	4.46265
1294.95	21.5023
1295.23	2.71158
1295.5	27.2634
1295.77	15.8285
1296.05	14.8364
1296.32	-2.0473
1296.6	10.6243
1296.87	7.41339
1297.14	18.9849
1297.42	3.07846
1297.69	12.5129
1297.96	8.32941
1298.24	8.33502
1298.51	13.576
1298.78	1.9321
1299.06	15.62
1299.33	13.5164
1299.6	12.5341
1299.88	12.5935
1300.15	8.40085
1300.43	13.6855
1300.7	22.1366
1300.97	19.0016
1301.25	13.796
1301.52	10.7021
1301.79	8.64111
1302.07	17.1225
1302.34	5.51846
1302.61	5.51678
1302.89	23.454
1303.16	11.7949
1303.43	9.68335
1303.71	10.7635
1303.98	12.8959
1304.25	5.51941
1304.53	7.61185
1304.8	-0.873413
1305.07	17.0126
1305.35	2.17929
1305.62	11.609
1305.89	10.5007
1306.17	2.04752
1306.44	17.8796
1306.71	8.43918
1306.98	10.5794
1307.26	6.37451
1307.53	4.27762
1307.8	19.0875
1308.08	9.58765
1308.35	15.9492
1308.62	14.969
1308.9	7.65134
1309.17	5.61121
1309.44	-3.8313
1309.71	7.78979
1309.99	9.89417
1310.26	5.68997
1310.53	7.83322
1310.81	15.2584
1311.08	3.68341
1311.35	4.78052
1311.63	8.02518
1311.9	18.6562
1312.17	4.97476
1312.45	7.09955
1312.72	7.06143
1312.99	4.95108
1313.26	13.3875
1313.54	12.3233
1313.81	22.8933
1314.08	21.8753
1314.36	11.3712
1314.63	11.4324
1314.9	0.933655
1315.17	15.7812
1315.45	7.39621
1315.72	16.9137
1315.99	12.6853
1316.26	11.632
1316.54	15.8645
1316.81	5.32098
1317.08	18.0568
1317.36	13.8871
1317.63	19.2112
1317.9	8.681
1318.17	25.6115
1318.45	22.463
1318.72	17.1903
1318.99	10.8566
1319.26	20.3692
1319.54	16.1824
1319.81	14.0952
1320.08	9.87204
1320.35	5.61905
1320.63	3.45233
1320.9	10.7668
1321.17	1.17401
1321.44	2.18811
1321.72	6.32748
1321.99	11.5714
1322.26	17.8692
1322.53	3.07651
1322.81	12.5028
1323.08	7.29309
1323.35	7.32745
1323.62	12.6268
1323.9	5.2504
1324.17	4.2236
1324.44	15.8232
1324.71	5.33322
1324.99	11.599
1325.26	6.19525
1325.53	15.5071
1325.8	19.4666
1326.08	9.9043
1326.35	8.82904
1326.62	14.2018
1326.89	22.8916
1327.16	4.07532
1327.44	22.1257
1327.71	-0.910431
1327.98	-1.81238
1328.25	10.9745
1328.53	15.2673
1328.8	3.61975
1329.07	4.73743
1329.34	8.96265
1329.61	20.5592
1329.89	9.98553
1330.16	14.1612
1330.43	8.82697
1330.7	11.9073
1330.98	25.4945
1331.25	4.28711
1331.52	9.4473
1331.79	11.4752
1332.06	9.28546
1332.33	18.654
1332.61	13.2869
1332.88	14.2418
1333.15	10.9998
1333.42	10.919
1333.69	7.68933
1333.97	10.7672
1334.24	10.6993
1334.51	15.891
1334.78	13.7427
1335.05	1.10489
1335.33	12.602
1335.6	10.4644
1335.87	24.0619
1336.14	7.25555
1336.41	-0.105774
1336.69	10.3626
1336.96	4.06216
1337.23	18.7179
1337.5	16.5622
1337.77	15.444
1338.04	9.12518
1338.32	-0.337189
1338.59	12.2048
1338.86	0.692596
1339.13	13.2854
1339.4	13.3237
1339.67	20.6813
1339.95	18.6163
1340.22	17.6002
1340.49	12.3777
1340.76	7.1445
1341.03	19.7055
1341.3	8.16849
1341.58	13.3682
1341.85	12.2674
1342.12	12.1956
1342.39	14.2141
1342.66	2.67096
1342.93	11.0292
1343.2	20.4461
1343.48	15.231
1343.75	1.65811
1344.02	2.7236
1344.29	12.1272
1344.56	-4.6387
1344.83	10.9887
1345.1	11.9472
1345.38	7.69421
1345.65	1.33475
1345.92	3.2807
1346.19	19.878
1346.46	11.444
1346.73	9.26877
1347	6.06146
1347.28	10.1824
1347.55	-0.26944
1347.82	5.97113
1348.09	16.3855
1348.36	15.3107
1348.63	23.5998
1348.9	18.3399
1349.18	22.458
1349.45	-9.86783
1349.72	15.0786
1349.99	12.9509
1350.26	13.9274
1350.53	11.7767
1350.8	11.7343
1351.07	2.3071
1351.34	11.6504
1351.62	3.34012
1351.89	17.9506
1352.16	-4.84354
1352.43	4.64038
1352.7	1.57849
1352.97	6.02499
1353.24	21.005
1353.51	9.28479
1353.78	24.3871
1354.06	18.7899
1354.33	7.4072
1354.6	11.6295
1354.87	13.6137
1355.14	17.693
1355.41	16.7733
1355.68	1.27252
1355.95	12.6353
1356.22	9.50223
1356.49	12.6058
1356.76	17.7834
1357.04	12.565
1357.3	5.26251
1357.58	-1.0058
1357.85	19.7095
1358.12	13.4402
1358.39	8.20349
1358.66	9.18939
1358.93	10.1935
1359.2	6.0192
1359.47	16.3268
1359.74	13.1285
1360.01	10.9778
1360.28	11.9599
1360.56	8.83847
1360.83	-2.54584
1361.1	14.035
1361.37	21.2831
1361.64	12.978
1361.91	22.2756
1362.18	20.1884
1362.45	15.0125
1362.72	11.9412
1362.99	5.79944
1363.26	10.0078
1363.53	14.21
1363.8	12.1617
1364.07	5.94159
1364.34	10.0685
1364.61	29.704
1364.89	15.1483
1365.16	13.0136
1365.43	8.81274
1365.7	13.9274
1365.97	11.7951
1366.24	4.47745
1366.51	12.651
1366.78	17.771
1367.05	6.38577
1367.32	7.46899
1367.59	8.55228
1367.86	12.7255
1368.13	18.9669
1368.4	28.3103
1368.67	7.67856
1368.94	21.1627
1369.21	56.3005
1369.48	40.7656
1369.75	43.8418
1370.02	38.6029
1370.29	29.2652
1370.56	5.45929
1370.83	22.9453
1371.1	15.6194
1371.37	16.5343
1371.64	5.06924
1371.91	14.2495
1372.18	7.98578
1372.45	4.84827
1372.72	11.0037
1372.99	7.88614
1373.26	19.2029
1373.54	-2.44839
1373.8	22.273
1374.07	27.4186
1374.34	10.9264
1374.61	18.111
1374.89	10.9249
1375.16	12.0154
1375.42	19.239
1375.69	15.1604
1375.96	32.6079
1376.24	18.1215
1376.51	14.94
1376.77	6.56628
1377.04	17.9325
1377.31	10.8272
1377.58	29.5104
1377.86	13.2167
1378.12	15.5043
1378.39	32.0891
1378.66	6.32462
1378.93	25.8846
1379.2	21.7307
1379.47	16.5299
1379.74	26.7276
1380.01	9.96439
1380.28	18.0592
1380.55	14.8212
1380.82	29.3197
1381.09	24.1149
1381.36	20.8865
1381.63	16.6154
1381.9	31.8869
1382.17	17.4036
1382.44	13.1746
1382.71	14.1249
1382.98	32.493
1383.25	29.372
1383.52	19.0741
1383.79	47.8092
1384.06	36.5747
1384.33	25.377
1384.6	40.8667
1384.87	63.6167
1385.14	78.1075
1385.41	87.4681
1385.68	97.7997
1385.95	116.4
1386.21	153.442
1386.48	233.583
1386.76	368.817
1387.03	681.005
1387.29	1301.16
1387.56	1809.61
1387.83	1999.07
1388.1	1232.33
1388.37	542.815
1388.64	257.09
1388.91	192.435
1389.18	127.854
1389.45	113.373
1389.72	54.5959
1389.99	55.4145
1390.26	57.5312
1390.53	19.4401
1390.8	46.0649
1391.06	41.9601
1391.33	36.7737
1391.6	29.5251
1391.87	25.363
1392.14	28.39
1392.41	34.4995
1392.68	25.2615
1392.95	26.2664
1393.22	27.2742
1393.49	33.4025
1393.76	17.0212
1394.03	9.85458
1394.3	35.4368
1394.56	23.2021
1394.83	18.1653
1395.1	27.4389
1395.37	31.5738
1395.64	11.1113
1395.91	-0.156403
1396.18	20.2924
1396.45	23.3351
1396.72	25.3376
1396.99	13.012
1397.26	17.0835
1397.52	31.4127
1397.79	6.90189
1398.06	20.2561
1398.33	4.95566
1398.6	16.2464
1398.87	15.2932
1399.14	4.09531
1399.41	16.4279
1399.68	3.14249
1399.95	10.3645
1400.22	9.43893
1400.48	16.6724
1400.75	7.46973
1401.02	26.978
1401.29	20.8558
1401.56	12.7787
1401.83	4.7782
1402.1	18.3331
1402.37	24.6714
1402.63	23.7827
1402.9	4.35904
1403.17	22.8684
1403.44	27.9601
1403.71	19.5747
1403.98	13.4633
1404.25	27.8239
1404.51	18.5695
1404.78	21.6053
1405.05	22.5836
1405.32	28.6907
1405.59	33.7746
1405.86	14.2771
1406.13	23.4872
1406.39	19.418
1406.66	22.5352
1406.93	29.7607
1407.2	26.7251
1407.47	41.1185
1407.74	42.1832
1408.01	53.5018
1408.27	67.9038
1408.54	77.1891
1408.81	113.139
1409.08	129.606
1409.35	107.084
1409.62	86.6019
1409.89	58.8503
1410.15	46.4614
1410.42	40.2079
1410.69	48.3351
1410.96	33.9413
1411.23	5.22147
1411.5	12.3889
1411.76	21.6697
1412.03	4.35599
1412.3	29.1477
1412.57	19.3467
1412.84	27.8741
1413.11	12.2931
1413.37	10.7339
1413.64	17.9742
1413.91	17.1952
1414.18	22.5548
1414.45	14.328
1414.72	14.3615
1414.98	22.5945
1415.25	13.3795
1415.52	22.6666
1415.79	12.4483
1416.06	16.608
1416.33	22.8245
1416.59	8.50369
1416.86	21.9181
1417.13	10.6745
1417.4	22.0187
1417.67	9.71368
1417.93	10.7702
1418.2	21.0879
1418.47	9.80124
1418.74	2.64014
1419.01	22.1536
1419.27	9.78006
1419.54	12.8105
1419.81	13.7935
1420.08	8.6091
1420.35	-5.81906
1420.61	15.6929
1420.88	21.8302
1421.15	16.729
1421.42	17.8508
1421.69	15.9429
1421.95	14.0097
1422.22	7.00986
1422.49	26.833
1422.76	15.8701
1423.02	26.733
1423.29	31.7498
1423.56	11.4942
1423.83	1.96695
1424.1	11.1
1424.36	29.7383
1424.63	7.3306
1424.9	15.7621
1425.17	9.46021
1425.43	8.62094
1425.7	14.7695
1425.97	9.60989
1426.24	14.6672
1426.51	15.6193
1426.77	15.5375
1427.04	20.5495
1427.31	6.10004
1427.58	17.3231
1427.84	18.3376
1428.11	14.262
1428.38	11.2273
1428.65	14.3452
1428.91	4.15952
1429.18	8.3251
1429.45	11.4855
1429.72	7.49365
1429.98	22.9649
1430.25	6.67334
1430.52	19.1434
1430.79	17.2406
1431.05	17.3275
1431.32	-1.1174
1431.59	16.298
1431.86	14.1823
1432.12	13.1167
1432.39	18.1754
1432.66	13.9623
1432.93	24.088
1433.19	26.0128
1433.46	9.54822
1433.73	8.50143
1434	8.6348
1434.26	3.63556
1434.53	38.5092
1434.8	13.9391
1435.07	17.0257
1435.33	14.9801
1435.6	8.83035
1435.87	13.9488
1436.13	0.619141
1436.4	12.8982
1436.67	6.74081
1436.94	6.74606
1437.2	15.9519
1437.47	5.7059
1437.74	8.80804
1438	20.1404
1438.27	7.90247
1438.54	6.91034
1438.81	16.166
1439.07	13.1578
1439.34	15.2997
1439.61	10.2855
1439.87	12.4063
1440.14	15.5257
1440.41	9.3996
1440.67	8.40924
1440.94	14.5628
1441.21	9.40268
1441.48	16.5623
1441.74	9.45932
1442.01	4.36734
1442.28	6.49808
1442.54	6.4902
1442.81	6.45349
1443.08	14.6241
1443.34	3.32898
1443.61	18.7073
1443.88	18.7385
1444.15	19.8738
1444.41	11.7708
1444.68	11.9048
1444.95	0.623718
1445.21	7.79248
1445.48	2.65302
1445.75	-6.58826
1446.01	15.9701
1446.28	21.0897
1446.55	2.62231
1446.81	-3.54349
1447.08	10.7877
1447.35	-4.60944
1447.61	6.67392
1447.88	14.9458
1448.15	3.76727
1448.41	23.2993
1448.68	7.93237
1448.95	17.1557
1449.21	7.90244
1449.48	5.81622
1449.75	22.1772
1450.01	11.9142
1450.28	16.0059
1450.55	2.6731
1450.81	18.0366
1451.08	10.847
1451.35	19.0282
1451.61	12.8708
1451.88	21.0666
1452.15	9.8187
1452.41	-2.44659
1452.68	11.9539
1452.94	-10.5365
1453.21	5.88724
1453.48	8.95645
1453.75	3.82855
1454.01	11.0187
1454.28	19.2364
1454.54	5.927
1454.81	11.0441
1455.08	13.105
1455.34	17.2847
1455.61	7.09235
1455.88	9.16397
1456.14	-0.0639648
1456.41	-1.12424
1456.68	27.5224
1456.94	25.464
1457.21	13.1658
1457.47	5.99521
1457.74	2.94165
1458.01	17.3063
1458.27	20.4171
1458.54	15.3308
1458.8	18.433
1459.07	8.21674
1459.34	9.24854
1459.6	2.07355
1459.87	23.5816
1460.13	4.10855
1460.4	15.3598
1460.67	12.2604
1460.93	8.13876
1461.2	21.4205
1461.47	13.1909
1461.73	12.1245
1462	6.95804
1462.26	12.0205
1462.53	14.0069
1462.79	13.9436
1463.06	5.7049
1463.33	7.73679
1463.59	12.9483
1463.86	5.97083
1464.13	-2.0799
1464.39	12.4072
1464.66	18.5016
1464.92	13.717
1465.19	13.4259
1465.45	20.4917
1465.72	11.4447
1465.99	10.4452
1466.25	-4.98581
1466.52	8.20871
1466.78	10.316
1467.05	-1.9288
1467.32	6.22565
1467.58	12.3461
1467.85	15.417
1468.11	4.20721
1468.38	5.2287
1468.64	3.17508
1468.91	1.11362
1469.18	15.35
1469.44	5.09189
1469.71	15.2339
1469.97	9.0878
1470.24	1.93314
1470.51	1.92166
1470.77	15.1475
1471.04	4.91089
1471.3	9.96985
1471.57	13.0143
1471.83	18.1087
1472.1	18.116
1472.36	7.94119
1472.63	2.84668
1472.9	23.1805
1473.16	10.9287
1473.43	6.83292
1473.69	6.82196
1473.96	-1.30753
1474.22	3.82071
1474.49	8.95477
1474.75	18.1381
1475.02	18.1478
1475.28	2.87158
1475.55	7.9346
1475.82	14.0194
1476.08	5.86887
1476.35	5.83899
1476.61	3.7648
1476.88	4.7652
1477.14	-1.33295
1477.41	14.9465
1477.67	6.79764
1477.94	2.68658
1478.2	3.66772
1478.47	10.751
1478.73	18.8418
1479	-5.58945
1479.27	16.7079
1479.53	11.5743
1479.79	0.313141
1480.06	3.27603
1480.32	9.31091
1480.59	-7.95877
1480.85	-0.889435
1481.12	3.19821
1481.39	11.3807
1481.65	7.3978
1481.92	10.5266
1482.18	0.446594
1482.45	19.7624
1482.71	0.520874
1482.98	2.59351
1483.24	11.7544
1483.51	4.65433
1483.77	3.54565
1484.04	8.46439
1484.3	1.06339
1484.57	5.71185
1484.83	3.49973
1485.1	13.3573
1485.36	10.9702
1485.63	18.2806
1485.89	6.27853
1486.16	18.1496
1486.42	5.09369
1486.69	4.17255
1486.95	9.17725
1487.22	15.1898
1487.48	20.2188
1487.75	6.00516
1488.01	2.91516
1488.28	22.0833
1488.54	-2.25629
1488.81	9.86301
1489.07	3.77905
1489.34	18.9456
1489.6	9.85208
1489.86	15.9372
1490.13	3.78009
1490.39	8.79089
1490.66	4.6936
1490.92	16.8065
1491.19	19.8377
1491.45	10.7502
1491.72	22.9157
1491.98	4.72534
1492.25	3.71329
1492.51	9.78162
1492.78	2.72369
1493.04	7.77151
1493.3	0.696472
1493.57	13.8543
1493.83	2.76987
1494.1	2.81982
1494.36	6.87466
1494.63	6.84686
1494.89	-3.33279
1495.16	3.63721
1495.42	5.57181
1495.69	16.6308
1495.95	10.5408
1496.22	7.49057
1496.48	14.5172
1496.74	8.47311
1497.01	10.5095
1497.27	1.42142
1497.54	2.43683
1497.8	5.4826
1498.07	5.50497
1498.33	7.55038
1498.59	20.7004
1498.86	9.63416
1499.12	9.67935
1499.39	5.6889
1499.65	10.7679
1499.92	10.7842
1500.18	7.75916
1500.44	12.8155
1500.71	-3.34433
1500.97	11.7382
1501.24	4.66629
1501.5	9.7186
1501.77	9.72324
1502.03	11.7352
1502.29	11.6833
1502.56	-4.5163
1502.82	1.52423
1503.09	-2.56348
1503.35	-5.58414
1503.62	6.56653
1503.88	14.6671
1504.14	8.63837
1504.41	-0.43222
1504.67	-1.45511
1504.93	2.54871
1505.2	9.54727
1505.46	13.4493
1505.73	20.4903
1505.99	9.41483
1506.26	3.38397
1506.52	8.49713
1506.78	16.5853
1507.05	3.51913
1507.31	3.53735
1507.58	12.6018
1507.84	-3.52789
1508.1	10.5979
1508.37	11.6352
1508.63	7.62762
1508.89	6.63287
1509.16	14.7037
1509.42	17.7675
1509.69	6.74857
1509.95	17.7842
1510.21	13.7081
1510.48	-6.49811
1510.74	8.54071
1511.01	6.42203
1511.27	10.292
1511.53	7.11282
1511.8	8.9798
1512.06	4.8208
1512.32	10.7753
1512.59	8.70477
1512.85	8.65332
1513.12	5.61789
1513.38	10.6977
1513.64	5.83893
1513.91	4.90378
1514.17	1.87445
1514.43	4.83951
1514.7	0.745117
1514.96	7.71103
1515.22	3.61356
1515.49	5.53677
1515.75	18.5097
1516.02	4.45032
1516.28	0.42923
1516.54	8.44287
1516.81	11.4545
1517.07	14.481
1517.33	6.49503
1517.6	1.55109
1517.86	8.61417
1518.12	-1.37799
1518.39	6.6824
1518.65	6.72498
1518.91	2.75461
1519.18	11.818
1519.44	22.8676
1519.7	1.78955
1519.97	11.8124
1520.23	-6.2186
1520.49	6.8685
1520.76	2.90112
1521.02	7.94934
1521.28	-1.07349
1521.55	10.9565
1521.81	11.9398
1522.07	-7.14224
1522.34	8.88721
1522.6	3.83853
1522.86	10.7835
1523.13	6.66504
1523.39	12.5964
1523.65	14.5409
