#Acq. time (s)=	40
#Accumulations=	2
#Range (cm-¹)=	1200...2365
#Windows=	3
#Auto scanning=	Off
#Autofocus=	Off
#Macrospot=	Off
#AutoExposure=	Off
#Spike filter=	Multiple accum.
#Delay time (s)=	2
#Binning=	1
#Readout mode=	Signal
#DeNoise=	Off
#ICS correction=	On
#Dark correction=	Off
#Inst. Process=	Off
#Detector Gain=	Best Dynamic
#Detector ADC=	50 kHz EM
#Detector EM gain=	400
#Detector temperature (°C)=	-60.09
#Instrument=	LabRAM HR Evol
#Detector=	SIN-EM FIVIS
#Objective=	x100_VIS_LWD
#Grating=	1800 (450-850nm)
#ND Filter=	100%
#Laser=	532nm_Edge
#Hole=	30.0125
#Temperature=	0
#Range=	Visible
#StageXY=	75x50mm Scan+
#StageZ=	Z motor
#X (µm)=	0
#Y (µm)=	0
#Z (µm)=	14.6
#Full time(mm:ss)=	4:22
#Project=	21_11_26
#Sample=	BU32
#Site=	
#Title=	BU32-A-incC-FI05-V_1800 (450-850nm)_532nm_Edge_100%_x100_VIS_LWD_H30um_40sX2
#Remark=	
#Date=	26.11.2021 18:16
#Acquired=	26.11.2021 18:16:44
#Base:Fit=	16.12.2021 14:47:12
#Base:Fit=	16.12.2021 14:47:15
#Base:Sub=	16.12.2021 14:47:17
1202.72	-13.8306
1203	-3.30957
1203.28	23.8865
1203.56	-8.65228
1203.84	27.6224
1204.11	-30.6236
1204.39	-12.4543
1204.67	-25.2418
1204.95	18.9844
1205.23	30.7911
1205.5	-32.7277
1205.78	1.52747
1206.06	29.2823
1206.34	-9.52557
1206.61	56.8179
1206.89	-4.47455
1207.17	16.7977
1207.45	54.1636
1207.73	5.91449
1208	18.7198
1208.28	12.295
1208.56	27.2535
1208.84	-2.78247
1209.11	19.6218
1209.39	38.8141
1209.67	33.4849
1209.95	5.75006
1210.23	18.615
1210.5	44.2411
1210.78	44.0893
1211.06	22.588
1211.34	1.14429
1211.61	1.03033
1211.89	7.35907
1212.17	38.1574
1212.45	41.2237
1212.72	40.0879
1213	20.8293
1213.28	26.075
1213.56	-16.5487
1213.83	10.0893
1214.11	50.5123
1214.39	18.6829
1214.67	-15.284
1214.94	33.7789
1215.22	-22.5707
1215.5	62.6603
1215.78	-15.0008
1216.05	-11.7675
1216.33	11.5954
1216.61	-1.27887
1216.89	4.95813
1217.16	38.8438
1217.44	-4.81433
1217.72	17.4268
1218	35.4061
1218.27	2.44275
1218.55	6.65228
1218.83	2.37646
1219.1	14.0679
1219.38	40.6378
1219.66	7.77356
1219.94	15.213
1220.21	18.3799
1220.49	-5.95306
1220.77	10.0376
1221.04	36.6019
1221.32	19.6572
1221.6	5.85577
1221.88	-5.82074
1222.15	17.4246
1222.43	9.87842
1222.71	16.0685
1222.98	26.463
1223.26	26.2822
1223.54	-22.5271
1223.81	17.5089
1224.09	-18.5243
1224.37	15.176
1224.65	18.291
1224.92	39.3806
1225.2	21.4378
1225.48	-24.9455
1225.76	6.86353
1226.03	-9.89676
1226.31	-9.75372
1226.59	4.021
1226.86	15.6743
1227.14	-30.7967
1227.42	-10.7502
1227.69	10.163
1227.97	-42.9605
1228.25	-2.09424
1228.52	30.3199
1228.8	0.430725
1229.08	49.5018
1229.35	-0.903687
1229.63	-30.0993
1229.91	21.6794
1230.18	21.2484
1230.46	27.1376
1230.74	-7.73593
1231.01	-53.9514
1231.29	-60.464
1231.57	-10.852
1231.84	-27.4977
1232.12	-27.4316
1232.4	6.2522
1232.67	13.6197
1232.95	39.9482
1233.23	-12.5371
1233.5	10.5996
1233.78	-6.146
1234.06	55.9366
1234.33	1.43207
1234.61	22.5729
1234.89	-1.4433
1235.16	-0.232422
1235.44	-16.9349
1235.71	2.10779
1235.99	-1.95953
1236.27	14.98
1236.54	-25.9594
1236.82	25.5669
1237.1	-11.2328
1237.37	3.44391
1237.65	-23.9702
1237.93	-29.3224
1238.2	46.1629
1238.48	25.0466
1238.76	-2.34775
1239.03	13.3149
1239.31	26.9285
1239.58	-5.57217
1239.86	0.738525
1240.14	11.2609
1240.41	7.12451
1240.69	-4.33411
1240.97	-29.4036
1241.24	3.19177
1241.52	5.38055
1241.79	41.0467
1242.07	-1.94946
1242.35	-24.9882
1242.62	17.011
1242.9	-10.1307
1243.18	42.4205
1243.45	-8.79767
1243.73	14.3304
1244	-15.9922
1244.28	-24.2729
1244.56	-1.14252
1244.83	19.8625
1245.11	1.01633
1245.39	16.6972
1245.66	-5.36392
1245.94	59.4657
1246.21	26.8928
1246.49	43.6382
1246.76	-25.4169
1247.04	26.995
1247.32	14.4964
1247.59	9.29147
1247.87	14.5861
1248.14	-7.37442
1248.42	30.1707
1248.7	25.9544
1248.97	-7.46634
1249.25	-9.45493
1249.52	9.48199
1249.8	30.4378
1250.08	-13.4348
1250.35	24.2954
1250.63	10.6618
1250.9	12.6892
1251.18	-31.2525
1251.45	3.20901
1251.73	-13.5253
1252.01	-16.673
1252.28	4.19711
1252.56	11.4834
1252.83	30.2505
1253.11	22.9014
1253.39	31.2204
1253.66	30.1957
1253.94	-25.0366
1254.21	-20.7124
1254.49	7.63641
1254.76	-10.9734
1255.04	8.97986
1255.31	-6.61115
1255.59	-13.8098
1255.87	29.0765
1256.14	-24.1331
1256.42	-26.1286
1256.69	-4.0874
1256.97	-18.5651
1257.24	-19.5142
1257.52	14.9993
1257.79	-12.157
1258.07	10.8438
1258.35	0.433746
1258.62	7.77106
1258.9	18.2232
1259.17	4.60193
1259.45	-23.5193
1259.72	11.0543
1260	25.8168
1260.27	-32.3783
1260.55	31.2625
1260.82	46.8611
1261.1	-6.48682
1261.37	15.3701
1261.65	7.01175
1261.92	25.9322
1262.2	25.4338
1262.48	17.8384
1262.75	-7.91455
1263.02	34.1616
1263.3	8.5437
1263.58	16.7201
1263.85	43.3978
1264.13	9.41904
1264.4	80.027
1264.68	72.0237
1264.95	92.6386
1265.23	65.3879
1265.5	18.4258
1265.78	-17.0817
1266.05	23.6499
1266.33	36.2559
1266.6	-23.196
1266.88	-12.6105
1267.15	18.9105
1267.43	10.7386
1267.7	7.80948
1267.98	13.2603
1268.25	34.4302
1268.53	37.8808
1268.8	-26.7831
1269.08	-30.8088
1269.35	55.2466
1269.63	-23.1974
1269.9	-14.7743
1270.18	-5.38531
1270.45	1.8624
1270.73	-7.59836
1271	26.8925
1271.28	-24.4093
1271.55	-37.9756
1271.83	2.83807
1272.1	21.7817
1272.38	38.72
1272.65	-22.8266
1272.93	-2.67233
1273.2	-11.9005
1273.47	0.873016
1273.75	-4.16248
1274.03	11.7658
1274.3	-5.85672
1274.57	35.2026
1274.85	27.955
1275.12	22.7578
1275.4	10.2426
1275.67	-31.5929
1275.95	14.7191
1276.22	3.33658
1276.5	-8.01846
1276.77	24.6863
1277.05	1.75723
1277.32	-27.5081
1277.6	19.9485
1277.87	45.3616
1278.14	-39.5649
1278.42	-2.61224
1278.69	-4.55261
1278.97	-3.28903
1279.24	55.7634
1279.52	9.63614
1279.79	-36.6088
1280.07	-2.91821
1280.34	17.0743
1280.61	30.7951
1280.89	21.4398
1281.16	5.78064
1281.44	-5.59735
1281.71	13.5715
1281.99	33.7105
1282.26	30.6097
1282.53	5.4635
1282.81	28.7526
1283.08	3.46881
1283.36	29.5919
1283.63	-8.64835
1283.91	36.4243
1284.18	132.104
1284.45	129.354
1284.73	382.525
1285	768.417
1285.28	785.322
1285.55	431.944
1285.83	203.226
1286.1	40.1147
1286.37	73.9992
1286.65	40.3637
1286.92	27.696
1287.2	-0.670502
1287.47	12.0001
1287.75	23.5726
1288.02	8.81363
1288.29	-29.0585
1288.57	-7.94839
1288.84	20.5472
1289.12	18.5478
1289.39	-2.35934
1289.66	12.5371
1289.94	14.8052
1290.21	-25.042
1290.49	9.87021
1290.76	-31.1471
1291.03	25.747
1291.31	-7.91809
1291.58	-11.0181
1291.86	-5.68964
1292.13	10.1566
1292.4	-17.1542
1292.68	-13.8961
1292.95	-10.6971
1293.22	37.7752
1293.5	-42.1712
1293.77	-14.5638
1294.05	-1.6489
1294.32	6.01044
1294.59	7.19122
1294.87	-16.9947
1295.14	31.5439
1295.42	-4.15186
1295.69	28.8322
1295.96	33.4098
1296.24	21.1801
1296.51	9.83685
1296.79	-12.2394
1297.06	43.8619
1297.33	15.3335
1297.61	2.6308
1297.88	3.65192
1298.15	19.4486
1298.43	-7.02133
1298.7	-2.67236
1298.97	-23.7664
1299.25	27.9594
1299.52	15.2852
1299.79	-12.1758
1300.07	26.9409
1300.34	-62.6391
1300.62	-2.34454
1300.89	-8.60016
1301.16	-13.8359
1301.44	-8.50919
1301.71	-12.6423
1301.98	-10.3828
1302.25	8.77063
1302.53	-3.79547
1302.8	5.79141
1303.08	-40.6275
1303.35	3.77087
1303.62	16.4551
1303.9	-4.69052
1304.17	-10.9784
1304.44	15.4967
1304.72	13.4512
1304.99	-15.0007
1305.26	-7.60349
1305.54	-7.62454
1305.81	23.9918
1306.08	13.3887
1306.35	-7.7688
1306.63	6.96561
1306.9	-7.77878
1307.18	9.15826
1307.45	-13.9359
1307.72	17.7849
1308	-21.1823
1308.27	24.2314
1308.54	-24.1957
1308.81	37.014
1309.09	27.6143
1309.36	24.5963
1309.63	9.96252
1309.91	9.04453
1310.18	-1.39737
1310.45	-9.78912
1310.73	38.7858
1311	44.1268
1311.27	-40.2115
1311.55	26.3654
1311.82	-5.20984
1312.09	23.3925
1312.37	-16.5709
1312.64	5.73541
1312.91	17.4485
1313.18	7.98688
1313.46	7.97073
1313.73	1.68219
1314	10.1455
1314.28	9.11618
1314.55	4.95615
1314.82	-12.8961
1315.09	14.6625
1315.37	0.00714111
1315.64	28.64
1315.91	-11.3603
1316.18	54.2519
1316.46	20.4929
1316.73	1.51273
1317	-23.7922
1317.28	0.546387
1317.55	-11.0084
1317.82	-1.3714
1318.09	11.4145
1318.37	-19.1263
1318.64	14.7607
1318.91	28.5683
1319.18	9.61572
1319.46	-17.8043
1319.73	-6.14145
1320	31.9315
1320.28	9.84348
1320.55	13.0805
1320.82	-56.6083
1321.09	14.1585
1321.37	15.1629
1321.64	5.57898
1321.91	-4.01569
1322.18	-0.876892
1322.46	-27.3275
1322.73	-19.9466
1323	30.6703
1323.27	-0.980255
1323.55	-28.4255
1323.82	42.3327
1324.09	3.40228
1324.36	1.3623
1324.64	49.9113
1324.91	-30.1582
1325.18	25.7728
1325.45	-5.76859
1325.73	-5.83316
1326	16.1371
1326.27	-19.9016
1326.54	-9.65234
1326.81	28.142
1327.09	-28.6475
1327.36	16.8182
1327.63	36.1672
1327.9	-33.1141
1328.18	-20.2484
1328.45	18.999
1328.72	31.9126
1328.99	24.7529
1329.27	-26.8383
1329.54	9.03116
1329.81	16.5281
1330.08	13.4
1330.35	33.4615
1330.63	19.7397
1330.9	-27.7527
1331.17	-26.7499
1331.44	22.7102
1331.71	-0.610046
1331.99	18.1916
1332.26	17.0215
1332.53	-28.3209
1332.8	5.26822
1333.07	-3.25931
1333.35	37.6336
1333.62	16.4961
1333.89	-13.0234
1334.16	-22.5572
1334.43	0.475952
1334.71	-30.045
1334.98	29.7343
1335.25	3.44495
1335.52	17.0475
1335.79	3.37061
1336.07	-29.1758
1336.34	1.21814
1336.61	-7.18719
1336.88	20.0641
1337.15	10.6266
1337.43	-2.99158
1337.7	-24.9877
1337.97	-1.92572
1338.24	9.53604
1338.51	-46.0429
1338.78	28.3134
1339.06	-11.5111
1339.33	-20.9311
1339.6	31.4647
1339.87	-3.01538
1340.14	26.3881
1340.42	-12.2919
1340.69	2.44299
1340.96	36.0274
1341.23	-7.91312
1341.5	-5.78513
1341.77	9.94263
1342.04	13.0833
1342.32	-8.92636
1342.59	18.2382
1342.86	11.8806
1343.13	-22.7166
1343.4	-17.497
1343.67	-22.7078
1343.95	-6.9816
1344.22	18.1684
1344.49	16.1402
1344.76	-17.2732
1345.03	13.0648
1345.3	25.584
1345.58	26.5681
1345.85	6.60416
1346.12	-8.09351
1346.39	12.686
1346.66	-17.7822
1346.93	14.4719
1347.2	-5.44727
1347.47	25.7443
1347.75	26.6978
1348.02	18.317
1348.29	-12.9649
1348.56	39.1588
1348.83	33.9622
1349.1	2.67325
1349.37	-3.61594
1349.65	-5.74121
1349.92	26.5073
1350.19	16.0545
1350.46	49.3318
1350.73	11.8144
1351	-22.5957
1351.27	4.38815
1351.54	22.043
1351.81	-15.4728
1352.09	25.0969
1352.36	37.6176
1352.63	-47.5462
1352.9	-20.3559
1353.17	4.80914
1353.44	-32.5256
1353.71	-8.13535
1353.98	-30.5757
1354.25	3.41858
1354.53	11.0581
1354.8	-6.02191
1355.07	5.51135
1355.34	-28.6885
1355.61	-11.1387
1355.88	14.7897
1356.15	20.2039
1356.42	28.6061
1356.69	-18.1995
1356.96	-13.0021
1357.24	-20.2632
1357.51	24.3963
1357.78	29.5717
1358.05	18.1211
1358.32	-25.5133
1358.59	-19.3198
1358.86	23.1954
1359.13	4.46716
1359.4	-20.4723
1359.67	-13.2299
1359.94	-13.2412
1360.22	28.1551
1360.49	5.25122
1360.76	-14.523
1361.03	19.6235
1361.3	19.6317
1361.57	2.06302
1361.84	-17.5874
1362.11	36.293
1362.38	-33.1075
1362.65	34.2008
1362.92	6.24197
1363.19	11.45
1363.46	-24.7118
1363.73	27.196
1364	-24.48
1364.28	-10.9088
1364.55	15.0303
1364.82	7.79388
1365.09	1.57483
1365.36	14.9972
1365.63	34.6041
1365.9	5.54712
1366.17	7.55313
1366.44	16.8014
1366.71	8.45584
1366.98	-23.6949
1367.25	-33.1101
1367.52	-3.16129
1367.79	-18.6632
1368.06	4.18256
1368.33	-5.03638
1368.6	27.0841
1368.87	-14.1895
1369.15	11.7304
1369.41	13.8849
1369.68	30.5089
1369.95	52.2045
1370.23	36.6831
1370.5	-18.1138
1370.77	-3.72156
1371.04	22.0929
1371.31	8.61578
1371.58	-5.93436
1371.85	7.3739
1372.12	6.19357
1372.39	27.7166
1372.66	-4.38586
1372.93	12.0291
1373.2	34.6681
1373.47	20.2143
1373.74	17.1042
1374.01	-17.9388
1374.28	5.76514
1374.55	12.987
1374.82	-22.0295
1375.09	25.3664
1375.36	8.86591
1375.63	-21.9731
1375.9	1.82312
1376.17	-22.8693
1376.44	6.04749
1376.71	-0.213409
1376.98	-10.5848
1377.25	45.9192
1377.52	51.9182
1377.79	-5.60141
1378.06	7.94516
1378.33	0.973663
1378.6	2.28519
1378.87	12.9024
1379.14	53.2381
1379.41	21.3007
1379.68	7.87631
1379.95	16.0948
1380.22	-17.9723
1380.49	-23.2787
1380.76	52.5583
1381.03	-6.28445
1381.3	-11.5613
1381.57	11.1862
1381.84	17.2708
1382.11	-4.50266
1382.38	-43.7352
1382.65	23.8976
1382.92	12.4644
1383.19	35.918
1383.46	1.96201
1383.73	3.91357
1384	30.5284
1384.27	24.3458
1384.54	35.6818
1384.81	36.7931
1385.08	24.6217
1385.34	35.0594
1385.61	26.0656
1385.88	11.87
1386.15	48.9805
1386.42	50.1181
1386.69	67.7271
1386.96	53.4393
1387.23	119.209
1387.5	186.51
1387.77	509.987
1388.04	1208.85
1388.31	1387.8
1388.58	755.616
1388.85	225.689
1389.12	156.815
1389.39	64.85
1389.66	78.2811
1389.93	22.9337
1390.2	23.8308
1390.46	16.298
1390.73	42.817
1391	50.0156
1391.27	25.2408
1391.54	34.4601
1391.81	12.9321
1392.08	2.61353
1392.35	-1.56934
1392.62	14.7481
1392.89	46.4438
1393.16	9.55554
1393.43	-7.86346
1393.7	57.6335
1393.97	-1.73651
1394.23	0.30954
1394.5	31.0131
1394.77	13.6249
1395.04	13.6436
1395.31	26.0143
1395.58	28.1836
1395.85	-14.7091
1396.12	8.89505
1396.39	-5.41296
1396.66	2.77338
1396.93	-8.50342
1397.2	27.2892
1397.46	15.9777
1397.73	3.64902
1398	-2.49622
1398.27	-4.50955
1398.54	21.1318
1398.81	9.97504
1399.08	15.1618
1399.35	36.7108
1399.62	14.3225
1399.89	-29.5941
1400.16	-23.3732
1400.42	33.9764
1400.69	28.9666
1400.96	8.65253
1401.23	1.57852
1401.5	-4.54688
1401.77	10.9086
1402.04	-1.3483
1402.31	28.5592
1402.58	-4.94519
1402.84	-21.031
1403.11	15.1219
1403.38	6.07693
1403.65	13.3735
1403.92	41.1339
1404.19	0.00637817
1404.46	-7.40692
1404.73	18.3488
1404.99	-8.33334
1405.26	-22.7144
1405.53	24.4208
1405.8	28.4648
1406.07	16.1083
1406.34	-35.1909
1406.61	-25.9771
1406.87	-3.42917
1407.14	22.2527
1407.41	6.94818
1407.68	59.3073
1407.95	60.4002
1408.22	51.2397
1408.49	72.8373
1408.76	69.8287
1409.02	119.127
1409.29	109.987
1409.56	193.15
1409.83	118.358
1410.1	77.3933
1410.37	37.4227
1410.63	-9.82224
1410.9	22.8951
1411.17	-6.9509
1411.44	42.1654
1411.71	29.8152
1411.98	-11.197
1412.25	21.604
1412.51	-3.9072
1412.78	38.284
1413.05	6.84741
1413.32	-12.0506
1413.59	-16.8707
1413.86	-16.1619
1414.12	22.228
1414.39	5.96417
1414.66	12.4773
1414.93	37.3788
1415.2	17.8733
1415.47	-3.63513
1415.73	18.9877
1416	6.71552
1416.27	15.0035
1416.54	38.7005
1416.81	-11.5383
1417.07	-25.8361
1417.34	-5.20432
1417.61	-48.2646
1417.88	19.6284
1418.15	-8.05386
1418.42	8.42978
1418.68	5.40033
1418.95	35.2591
1419.22	36.3267
1419.49	-20.1544
1419.76	-0.645538
1420.02	21.9025
1420.29	5.40054
1420.56	-0.818085
1420.83	21.7086
1421.1	25.7408
1421.36	45.1837
1421.63	-30.7806
1421.9	27.7837
1422.17	10.4958
1422.44	61.017
1422.7	1.64053
1422.97	35.8516
1423.24	7.51324
1423.51	40.9228
1423.77	-1.35355
1424.04	-1.284
1424.31	2.97742
1424.58	28.1631
1424.85	13.8556
1425.11	33.4991
1425.38	2.09103
1425.65	41.1596
1425.92	-11.1832
1426.19	40.3027
1426.45	11.5741
1426.72	21.7759
1426.99	3.22284
1427.26	53.3539
1427.52	-5.18317
1427.79	10.0233
1428.06	25.2574
1428.33	14.969
1428.59	24.1836
1428.86	30.3652
1429.13	-0.292511
1429.4	-10.4624
1429.67	18.2989
1429.93	5.08975
1430.2	13.4196
1430.47	-6.91632
1430.74	28.0656
1431	-1.48679
1431.27	-0.222992
1431.54	8.17944
1431.81	9.31946
1432.07	-17.3341
1432.34	30.8441
1432.61	-10.2828
1432.87	4.03891
1433.14	40.8429
1433.41	-2.37442
1433.68	-2.54367
1433.95	17.7871
1434.21	27.938
1434.48	12.558
1434.75	18.9603
1435.01	9.87146
1435.28	-19.7953
1435.55	-33.0844
1435.82	-9.49649
1436.08	9.98047
1436.35	-6.41385
1436.62	34.5657
1436.89	-4.38107
1437.15	2.7735
1437.42	4.81052
1437.69	55.0159
1437.95	-10.5593
1438.22	15.0493
1438.49	3.83749
1438.76	32.6211
1439.02	6.06168
1439.29	22.4977
1439.56	-7.15829
1439.82	14.4618
1440.09	4.35217
1440.36	30.1455
1440.63	36.3895
1440.89	34.399
1441.16	-5.55649
1441.43	28.3405
1441.69	38.5858
1441.96	-13.7594
1442.23	46.7159
1442.49	2.75827
1442.76	36.6389
1443.03	4.97388
1443.3	19.2993
1443.56	-0.238098
1443.83	9.97504
1444.1	49.9351
1444.36	13.0407
1444.63	29.5017
1444.9	9.16461
1445.16	59.57
1445.43	9.49176
1445.7	28.9732
1445.97	31.0058
1446.23	48.4298
1446.5	22.7711
1446.77	-2.87949
1447.03	-1.86267
1447.3	35.0462
1447.57	38.0992
1447.83	28.835
1448.1	33.9383
1448.37	29.8616
1448.63	18.6978
1448.9	35.245
1449.17	-24.1853
1449.43	21.9904
1449.7	57.8712
1449.97	18.863
1450.23	21.8859
1450.5	34.134
1450.77	16.6921
1451.03	40.2553
1451.3	18.7189
1451.57	1.2822
1451.83	1.26154
1452.1	15.587
1452.37	20.6992
1452.63	-58.1825
1452.9	38.1557
1453.17	28.9858
1453.43	-20.1163
1453.7	5.57336
1453.97	-3.61969
1454.23	15.8446
1454.5	12.7701
1454.77	-3.59906
1455.03	1.55176
1455.3	50.7497
1455.56	6.68231
1455.83	3.6445
1456.1	36.5479
1456.36	-8.4754
1456.63	7.94894
1456.9	-20.7615
1457.16	2.75604
1457.43	-0.367188
1457.7	13.9658
1457.96	9.8627
1458.23	26.2589
1458.49	54.9703
1458.76	14.0326
1459.03	19.2081
1459.29	10.0364
1459.56	25.4471
1459.82	-11.4019
1460.09	-30.8606
1460.36	-18.5696
1460.62	26.4984
1460.89	21.3609
1461.16	48.9879
1461.42	11.0537
1461.69	-24.8228
1461.95	16.0921
1462.22	44.6991
1462.49	24.1604
1462.75	-8.65967
1463.02	12.7502
1463.28	24.9387
1463.55	34.049
1463.82	11.4747
1464.08	21.7065
1464.35	-5.72839
1464.61	34.4141
1464.88	17.2186
1465.15	-50.1136
1465.41	3.82135
1465.68	4.00897
1465.94	11.8118
1466.21	54.6495
1466.48	21.149
1466.74	-10.5149
1467.01	1.55127
1467.27	-5.62839
1467.54	-18.8223
1467.8	5.65747
1468.07	-16.7948
1468.34	10.7514
1468.6	15.8672
1468.87	9.76025
1469.13	-27.9826
1469.4	-8.62466
1469.67	-14.7755
1469.93	8.61166
1470.2	-5.74759
1470.46	-4.79224
1470.73	-7.88907
1470.99	13.4778
1471.26	-22.1928
1471.53	33.7976
1471.79	-7.01688
1472.06	-20.2952
1472.32	30.6108
1472.59	22.4695
1472.85	-18.2497
1473.12	68.3077
1473.39	9.23935
1473.65	-16.2564
1473.92	17.2883
1474.18	17.2533
1474.45	-36.6936
1474.71	25.4051
1474.98	-30.503
1475.24	-2.9696
1475.51	-27.3682
1475.78	19.4602
1476.04	25.5455
1476.31	12.2742
1476.57	4.11066
1476.84	-2.01166
1477.1	18.2821
1477.37	16.1914
1477.63	29.3952
1477.9	31.4346
1478.16	3.98764
1478.43	-29.599
1478.69	24.2201
1478.96	36.3692
1479.22	9.89291
1479.49	24.0612
1479.76	41.2634
1480.02	8.672
1480.29	28.9059
1480.55	-16.933
1480.82	-2.83127
1481.08	-16.0912
1481.35	27.5192
1481.61	-0.947021
1481.88	-21.1725
1482.14	2.26016
1482.41	-28.0785
1482.67	4.51849
1482.94	-17.7208
1483.2	-5.5163
1483.47	-4.4216
1483.73	-23.662
1484	-8.40594
1484.26	-10.4299
1484.53	14.7845
1484.79	12.5101
1485.06	-9.26031
1485.32	-7.83145
1485.59	5.11902
1485.85	10.8424
1486.12	27.1674
1486.38	-7.12601
1486.65	0.167236
1486.91	1.72137
1487.18	44.5392
1487.44	-8.05698
1487.71	-7.15692
1487.97	10.9914
1488.24	3.85822
1488.5	15.9552
1488.77	10.81
1489.03	-43.9372
1489.3	35.9487
1489.56	-14.6754
1489.83	29.8247
1490.09	-30.8871
1490.36	-13.6696
1490.62	36.9287
1490.89	34.867
1491.15	36.8124
1491.42	-18.8766
1491.68	21.5449
1491.95	-7.77362
1492.21	37.7422
1492.48	-10.7434
1492.74	-5.68106
1493	-0.628265
1493.27	40.8266
1493.53	-43.0592
1493.8	-22.8495
1494.06	-14.7574
1494.33	-5.63168
1494.59	-19.7315
1494.86	1.55933
1495.12	17.7385
1495.39	16.6725
1495.65	4.42731
1495.92	-20.9735
1496.18	18.3052
1496.45	-3.974
1496.71	32.3287
1496.97	7.05389
1497.24	-4.09058
1497.5	11.0668
1497.77	-10.1098
1498.03	47.4117
1498.3	-31.2951
1498.56	21.2095
1498.82	2.06729
1499.09	-12.0243
1499.35	11.2318
1499.62	30.4634
1499.88	-14.8963
1500.15	10.4035
1500.41	11.4528
1500.68	-5.69144
1500.94	22.5828
1501.2	12.4946
1501.47	16.5035
1501.73	-13.8441
1502	23.4892
1502.26	6.34174
1502.52	1.30011
1502.79	12.3771
1503.05	-13.9306
1503.32	-9.96313
1503.58	7.15005
1503.85	10.1123
1504.11	-3.9834
1504.37	-29.1268
1504.64	22.3461
1504.9	22.3722
1505.17	36.4902
1505.43	-7.90469
1505.7	41.4476
1505.96	10.0835
1506.22	-4.16812
1506.49	1.86737
1506.75	8.92752
1507.02	33.1499
1507.28	5.0311
1507.54	30.2635
1507.81	21.239
1508.07	-13.0043
1508.34	12.1782
1508.6	-4.95401
1508.86	-19.0288
1509.13	-16.9746
1509.39	-10.8994
1509.66	-32.0437
1509.92	6.26736
1510.18	-16.8363
1510.45	-3.68286
1510.71	24.4653
1510.98	9.2818
1511.24	8.18753
1511.5	-6.01862
1511.77	23.0085
1512.03	-5.39243
1512.29	-0.582123
1512.56	-14.8581
1512.82	37.2134
1513.08	-3.06708
1513.35	7.89502
1513.61	-18.2747
1513.88	-9.25406
1514.14	-8.12048
1514.4	-1.89444
1514.67	18.2647
1514.93	-1.85614
1515.2	13.1246
1515.46	-9.06683
1515.72	27.9769
1515.99	10.7931
1516.25	5.65863
1516.51	6.58545
1516.78	-11.488
1517.04	-11.5013
1517.3	-4.48969
1517.57	20.5866
1517.83	14.6023
1518.09	1.62485
1518.36	2.73575
1518.62	14.8194
1518.88	-40.2892
1519.15	20.9471
1519.41	-12.0917
1519.67	-14.0392
1519.94	1.05591
1520.2	-22.007
1520.47	26.1295
1520.73	-13.0035
1520.99	3.09702
1521.26	28.2489
1521.52	16.2762
