#Acq. time (s)=	20
#Accumulations=	3
#Range (cm-¹)=	100...4000
#Windows=	1
#Auto scanning=	Off
#Autofocus=	Off
#Macrospot=	Off
#AutoExposure=	Off
#Spike filter=	Multiple accum.
#Delay time (s)=	0
#Binning=	1
#Readout mode=	Signal
#DeNoise=	Lite
#ICS correction=	Off
#Dark correction=	Off
#Inst. Process=	Off
#Detector temperature (°C)=	-60.09
#Instrument=	LabRAM HR Evol
#Detector=	SIN-EM FIVIS
#Objective=	x50_VIS_LWD
#Grating=	150 (500nm)
#ND Filter=	100%
#Laser=	633nm_Edge
#Hole=	30.0125
#Temperature=	0
#Range=	Visible
#StageXY=	75x50mm Scan+
#StageZ=	Z motor
#X (µm)=	7300.2
#Y (µm)=	4433.6
#Z (µm)=	-20.8
#Full time(mm:ss)=	1:35
#Project=	Buranga
#Sample=	BU18FA20_C
#Site=	C_Bertoss1
#Title=	20-C_brt1_FI02
#Remark=	
#Date=	30.07.2019 14:24
#Acquired=	30.07.2019 14:24:07
100.38	1097
103.641	933.715
106.898	824.515
110.156	727.851
113.411	645.666
116.666	579.876
119.918	524.768
123.17	476.35
126.419	427.558
129.669	385.43
132.916	349.227
136.163	321.18
139.407	297.912
142.651	277.985
145.892	258.903
149.134	241.586
152.372	226.411
155.611	213.161
158.847	202.279
162.083	193.459
165.316	186.178
168.548	180.684
171.781	175.963
175.01	171.41
178.239	164.074
181.466	156.463
184.693	149.155
187.917	143.46
191.139	139.477
194.362	140.312
197.582	138.966
200.802	135.609
204.02	131.787
207.236	128.216
210.452	125.065
213.665	122.305
216.877	120.448
220.089	120.008
223.299	122.21
226.508	125.211
229.715	131.242
232.92	140.624
236.126	158.107
239.329	189.927
242.53	202.278
245.732	191.784
248.931	177.394
252.128	158.254
255.326	148.989
258.521	144.3
261.714	143.22
264.906	147.115
268.099	151.979
271.288	157.939
274.477	161.591
277.665	165.971
280.851	172.66
284.035	180.842
287.218	211.689
290.402	218.359
293.582	212.265
296.761	191.713
299.939	172.83
303.117	157.632
306.293	146.14
309.466	138.356
312.639	135.623
315.811	137.129
318.982	141.142
322.151	151.78
325.318	162.686
328.484	209.182
331.651	253.789
334.814	238.26
337.977	209.232
341.138	183.411
344.297	163.047
347.456	148.245
350.614	138.641
353.77	133.232
356.925	135.79
360.078	141.105
363.23	147.617
366.381	154.637
369.53	156.248
372.68	152.799
375.827	145.759
378.972	139.732
382.116	134.219
385.259	128.909
388.401	124.582
391.541	122.172
394.681	122.452
397.818	123.013
400.956	122.443
404.092	121.402
407.226	119.925
410.359	118.267
413.49	117.988
416.62	119.362
419.749	122.628
422.877	127.441
426.003	134.454
429.128	143.254
432.252	152.38
435.375	162.566
438.496	173.106
441.616	179.888
444.735	180.169
447.852	179.705
450.969	177.727
454.084	174.682
457.197	171.58
460.31	171.017
463.421	167.504
466.531	160.367
469.64	150.875
472.747	141.275
475.853	135.175
478.958	129.385
482.062	126.112
485.164	123.438
488.265	122.429
491.365	123.047
494.464	123.712
497.561	123.923
500.657	123.917
503.752	123.764
506.844	123.41
509.937	122.721
513.028	122.157
516.117	123.974
519.206	124.868
522.293	124.242
525.38	123.135
528.464	119.952
531.548	118.743
534.63	117.597
537.71	116.515
540.79	115.439
543.869	114.353
546.946	113.47
550.022	112.614
553.097	111.861
556.169	111.73
559.242	112.107
562.313	113.622
565.383	114.54
568.452	114.91
571.519	113.922
574.584	112.484
577.649	110.893
580.713	109.821
583.775	110.609
586.837	113.242
589.895	118.73
592.954	128.711
596.012	140.303
599.068	154.661
602.122	168.273
605.176	180.186
608.229	181.917
611.28	176.764
614.329	164.998
617.378	159.718
620.426	156.726
623.473	156.487
626.517	158.82
629.561	160.684
632.604	162.247
635.644	162.637
638.684	161.798
641.724	158.138
644.76	153.751
647.797	148.743
650.833	148.415
653.867	147.49
656.899	159.978
659.931	167.554
662.96	168.906
665.99	167.889
669.018	157.902
672.044	147.5
675.07	135.857
678.095	129.156
681.117	123.164
684.139	116.535
687.16	112.776
690.179	109.886
693.197	110.909
696.213	109.2
699.23	106.018
702.245	103.427
705.257	101.467
708.27	99.0638
711.28	97.3675
714.29	96.4287
717.298	96.8836
720.306	97.84
723.312	99.054
726.316	99.978
729.321	100.884
732.322	100.353
735.324	99.5157
738.323	98.8701
741.323	98.3298
744.32	98.224
747.317	98.3437
750.311	98.3298
753.306	98.9149
756.298	102.587
759.291	104.05
762.28	101.238
765.27	98.6966
768.258	96.9001
771.245	95.8991
774.23	95.8839
777.215	96.5793
780.198	96.4528
783.179	95.7834
786.161	95.0542
789.14	94.6455
792.119	94.7437
795.096	95.445
798.073	96.463
801.047	97.178
804.021	97.539
806.994	96.467
809.965	94.9917
812.936	94.3281
815.904	94.5073
818.871	95.5479
821.839	97.7282
824.804	99.5339
827.769	101.067
830.732	102.096
833.693	104.545
836.655	103.198
839.614	101.366
842.572	98.5093
845.53	98.0931
848.485	98.4286
851.44	98.7873
854.394	98.9001
857.346	98.7102
860.297	99.51
863.248	99.4152
866.197	99.2046
869.144	99.1637
872.091	98.895
875.037	98.7902
877.981	98.7853
880.924	98.8157
883.867	99.7083
886.807	100.365
889.746	101.48
892.685	102.438
895.623	102.637
898.559	102.925
901.493	102.59
904.427	100.388
907.359	98.6726
910.292	97.7845
913.222	97.7979
916.151	98.7206
919.078	100.419
922.006	102.043
924.932	103.576
927.856	105.412
930.779	106.088
933.701	107.286
936.622	109.088
939.543	111.322
942.461	114.125
945.379	118.393
948.295	118.918
951.21	126.704
954.124	135.155
957.037	143.769
959.95	151.465
962.861	156.622
965.77	160.884
968.678	161.371
971.585	166.373
974.491	174.065
977.396	178.036
980.3	201.071
983.202	234.307
986.104	267.358
989.005	303.18
991.904	328.863
994.802	340.76
997.699	328.604
1000.6	306.424
1003.49	273.796
1006.38	249.258
1009.28	227.656
1012.17	223.354
1015.06	222.741
1017.95	232.293
1020.83	244.988
1023.72	260.095
1026.61	271.222
1029.49	277.809
1032.37	268.323
1035.26	252.844
1038.14	217.218
1041.02	187.938
1043.9	172.024
1046.77	160.005
1049.65	151.143
1052.53	144.844
1055.4	140.345
1058.27	135.026
1061.15	129.92
1064.02	125.619
1066.88	122.208
1069.75	119.722
1072.62	118.688
1075.49	119.476
1078.35	122.419
1081.22	126.75
1084.08	131.989
1086.94	137.611
1089.8	143.304
1092.66	148.843
1095.52	154.342
1098.38	159.314
1101.23	162.761
1104.09	165.222
1106.94	162.417
1109.8	155.076
1112.65	144.364
1115.5	131.85
1118.35	121.444
1121.2	111.452
1124.05	104.955
1126.89	101.194
1129.74	100.795
1132.58	103.455
1135.42	106.92
1138.27	110.857
1141.11	115.078
1143.95	119.289
1146.78	123.776
1149.62	128.529
1152.46	133.413
1155.29	136.92
1158.13	139.068
1160.96	135.903
1163.79	128.858
1166.62	120.163
1169.45	111.798
1172.28	103.535
1175.11	94.2539
1177.93	92.9186
1180.76	93.0721
1183.59	93.1262
1186.41	92.9477
1189.23	92.9313
1192.05	92.1277
1194.87	92.4571
1197.69	93.4294
1200.51	92.607
1203.32	92.137
1206.14	89.4398
1208.95	79.1051
1211.77	89.6074
1214.58	89.2246
1217.39	86.7586
1220.2	85.1709
1223.01	84.2129
1225.82	83.8647
1228.62	84.7942
1231.43	85.9843
1234.23	86.8373
1237.04	87.6758
1239.84	88.1936
1242.64	89.6476
1245.44	91.4057
1248.24	93.4238
1251.04	98.0639
1253.83	103.936
1256.63	111.986
1259.42	121.203
1262.22	144.552
1265.01	152.506
1267.8	129.686
1270.59	112.81
1273.38	111.124
1276.17	131.743
1278.96	193.714
1281.74	579
1284.53	911
1287.31	391
1290.1	168.062
1292.88	134.741
1295.66	121.11
1298.44	113.35
1301.22	109.521
1303.99	107.882
1306.77	106.492
1309.55	104.863
1312.32	103.24
1315.09	101.579
1317.87	99.9716
1320.64	97.7542
1323.41	95.7071
1326.18	94.177
1328.94	93.5733
1331.71	93.6234
1334.48	94.0579
1337.24	94.2008
1340	94.6688
1342.77	94.267
1345.53	93.658
1348.29	93.0032
1351.05	92.6393
1353.81	92.7199
1356.56	93.5611
1359.32	95.4402
1362.08	98.7766
1364.83	103.077
1367.58	108.599
1370.33	120.377
1373.09	110.232
1375.84	117.225
1378.58	122.98
1381.33	146.573
1384.08	365
1386.82	1363
1389.57	1077
1392.31	303
1395.06	144.029
1397.8	121.248
1400.54	122.029
1403.28	111.998
1406.02	151.048
1408.75	164.897
1411.49	149.041
1414.22	116.024
1416.96	103.538
1419.69	95.1295
1422.42	90.6726
1425.15	87.6563
1427.88	84.6734
1430.61	82.6357
1433.34	81.4081
1436.07	80.8547
1438.79	80.5034
1441.52	80.0402
1444.24	79.4826
1446.96	77.9696
1449.69	76.7608
1452.41	75.1618
1455.13	73.848
1457.84	72.756
1460.56	72.0448
1463.28	71.858
1465.99	72.2336
1468.71	72.4122
1471.42	72.4121
1474.13	72.4738
1476.84	72.5851
1479.55	72.7395
1482.26	72.9141
1484.97	73.0883
1487.68	73.2316
1490.39	73.2716
1493.09	73.2467
1495.79	73.1687
1498.5	72.9509
1501.2	72.6575
1503.9	71.8733
1506.6	70.9715
1509.3	70.0268
1512	68.9268
1514.69	69.2513
1517.39	69.8929
1520.08	70.6504
1522.78	71.4126
1525.47	71.3909
1528.16	71.2106
1530.85	70.9469
1533.54	70.7712
1536.23	70.4891
1538.92	70.1525
1541.61	70.6207
1544.29	71.4364
1546.98	72.6262
1549.66	73.8044
1552.34	76.2728
1555.02	73.9238
1557.7	70.9349
1560.38	70.3023
1563.06	72.3173
1565.74	72.523
1568.42	73.7792
1571.09	73.8183
1573.77	73.0595
1576.44	72.0081
1579.11	71.8667
1581.78	72.0503
1584.45	72.3734
1587.12	72.7668
1589.79	73.0373
1592.46	73.063
1595.12	72.6576
1597.79	71.3068
1600.45	69.8652
1603.12	68.4839
1605.78	67.365
1608.44	66.6574
1611.1	66.3235
1613.76	66.5121
1616.42	67.1449
1619.08	68.1712
1621.73	68.9464
1624.39	69.5242
1627.04	69.8798
1629.7	70.5533
1632.35	70.8149
1635	70.8951
1637.65	70.8225
1640.3	70.8829
1642.95	70.9639
1645.59	71.0316
1648.24	70.9806
1650.88	71.1131
1653.53	71.0822
1656.17	70.9492
1658.82	70.761
1661.46	70.4297
1664.1	69.5178
1666.74	70.1391
1669.37	70.4128
1672.01	70.6801
1674.65	70.5781
1677.28	70.1863
1679.92	69.6121
1682.55	68.9183
1685.18	68.401
1687.82	68.1307
1690.44	68.0904
1693.07	68.2739
1695.7	68.6053
1698.33	69.3879
1700.96	70.3674
1703.58	71.3847
1706.21	72.9399
1708.83	73.6266
1711.45	73.335
1714.07	71.6007
1716.69	68.8013
1719.31	66.9503
1721.93	66.1203
1724.55	65.5786
1727.17	65.9621
1729.78	66.7233
1732.4	67.465
1735.01	68.3432
1737.62	69.3313
1740.23	70.588
1742.85	71.0369
1745.46	71.5457
1748.07	70.1462
1750.67	68.0324
1753.28	69.0961
1755.89	69.3104
1758.49	69.2787
1761.09	69.0702
1763.7	68.4676
1766.3	67.7628
1768.9	66.8205
1771.5	65.4732
1774.1	65.3461
1776.7	65.1721
1779.29	66.1915
1781.89	67.1875
1784.49	67.88
1787.08	68.3506
1789.67	68.5626
1792.27	68.5559
1794.86	68.3839
1797.45	67.799
1800.04	67.0908
1802.62	66.6328
1805.21	66.5227
1807.8	66.6245
1810.38	66.8098
1812.97	67.0099
1815.55	66.9886
1818.14	66.6139
1820.72	66.5904
1823.3	67.9423
1825.88	67.7272
1828.46	66.7531
1831.03	65.4589
1833.61	64.3531
1836.19	65.3084
1838.76	65.8325
1841.34	67.4289
1843.91	67.6307
1846.48	67.2804
1849.05	66.5478
1851.62	65.6674
1854.19	65.4526
1856.76	66.23
1859.33	67.1778
1861.89	68.2935
1864.46	68.8481
1867.02	68.8179
1869.59	68.3351
1872.15	67.457
1874.71	67.0373
1877.27	66.9975
1879.83	67.2913
1882.39	67.7192
1884.95	68.0842
1887.51	68.3546
1890.06	68.5301
1892.62	68.5861
1895.17	68.7289
1897.72	68.5917
1900.27	68.0028
1902.83	67.2434
1905.38	66.442
1907.93	65.9649
1910.47	66.2582
1913.02	66.8562
1915.57	67.282
1918.11	68.2914
1920.66	69.7006
1923.2	69.9969
1925.74	71.0535
1928.29	71.0067
1930.83	70.6623
1933.37	70.198
1935.91	69.6743
1938.44	69.133
1940.98	68.4905
1943.52	67.7033
1946.05	66.8738
1948.59	66.102
1951.12	65.8137
1953.65	65.5404
1956.18	65.3856
1958.72	66.0544
1961.25	67.3456
1963.77	68.445
1966.3	69.3021
1968.83	70.0999
1971.35	70.7364
1973.88	71.0562
1976.4	70.3719
1978.93	69.1312
1981.45	67.9447
1983.97	65.5038
1986.49	63.4986
1989.01	62.67
1991.53	63.0365
1994.05	63.8104
1996.56	64.2752
1999.08	64.3852
2001.59	64.4702
2004.11	64.5546
2006.62	64.8805
2009.13	65.5006
2011.64	67.1774
2014.15	68.4812
2016.66	68.6661
2019.17	67.4876
2021.68	66.6526
2024.18	66.4297
2026.69	67.284
2029.19	68.4257
2031.7	69.2922
2034.2	69.7091
2036.7	70.1215
2039.2	70.4607
2041.7	69.3554
2044.2	67.9073
2046.7	66.6781
2049.2	65.7678
2051.7	65.4049
2054.19	65.3344
2056.69	65.633
2059.18	66.1415
2061.67	66.7191
2064.16	67.4573
2066.65	68.4867
2069.15	69.6312
2071.63	70.7291
2074.12	71.474
2076.61	70.768
2079.1	69.6229
2081.58	68.2856
2084.07	66.8282
2086.55	65.8388
2089.03	65.1605
2091.51	64.4319
2094	63.9464
2096.47	63.6826
2098.95	63.8764
2101.43	64.102
2103.91	64.3994
2106.39	65.4001
2108.86	67.3071
2111.34	69.1726
2113.81	70.0569
2116.28	69.3551
2118.76	68.8403
2121.23	68.593
2123.7	68.7057
2126.17	68.7298
2128.63	68.0476
2131.1	66.7376
2133.57	65.544
2136.03	64.7222
2138.5	64.295
2140.96	64.3742
2143.43	65.0722
2145.89	65.9521
2148.35	67.0014
2150.81	68.3482
2153.27	69.3454
2155.73	68.7587
2158.18	67.9433
2160.64	66.7693
2163.1	64.869
2165.55	63.9365
2168	63.6562
2170.46	64.0207
2172.91	64.5712
2175.36	65.009
2177.81	64.0392
2180.26	63.0576
2182.71	61.6537
2185.16	60.6467
2187.6	60.1712
2190.05	60.7126
2192.5	62.2653
2194.94	65.0492
2197.38	67.881
2199.83	70.0072
2202.27	71.594
2204.71	71.7819
2207.15	70.7604
2209.59	69.5171
2212.02	68.4727
2214.46	68.2404
2216.9	68.2922
2219.33	68.5151
2221.77	68.7731
2224.2	68.9506
2226.64	69.1556
2229.07	69.4109
2231.5	69.7129
2233.93	68.5721
2236.36	68.0583
2238.79	67.4178
2241.21	66.0976
2243.64	65.8751
2246.06	66.9445
2248.49	67.5443
2250.91	68.0446
2253.34	68.3577
2255.76	68.4831
2258.18	68.0222
2260.6	67.6039
2263.02	67.4865
2265.44	66.9222
2267.86	66.0599
2270.27	65.1977
2272.69	65.4028
2275.11	66.3893
2277.52	67.6253
2279.93	68.295
2282.35	68.584
2284.76	68.6101
2287.17	68.3063
2289.58	67.7256
2291.99	67.0228
2294.4	66.6131
2296.8	66.4658
2299.21	66.5882
2301.62	66.6032
2304.02	66.8847
2306.43	67.2963
2308.83	67.136
2311.23	66.4354
2313.63	66.1092
2316.03	67.1528
2318.43	68.6966
2320.83	70.8994
2323.23	73.5445
2325.63	80.8324
2328.02	85.2979
2330.42	82.5478
2332.81	78.3323
2335.21	75.0586
2337.6	72.2438
2339.99	69.883
2342.38	67.9226
2344.77	66.5766
2347.16	66.4639
2349.55	67.0782
2351.94	67.9285
2354.32	68.5507
2356.71	68.9601
2359.1	69.0529
2361.48	68.6155
2363.86	67.4763
2366.25	66.4502
2368.63	65.561
2371.01	64.7952
2373.39	64.2085
2375.77	63.8119
2378.15	63.6037
2380.52	63.5242
2382.9	63.5514
2385.28	63.6573
2387.65	64.0214
2390.03	64.5896
2392.4	65.2351
2394.77	65.8389
2397.14	66.3281
2399.51	66.8351
2401.88	67.9063
2404.25	65.5105
2406.62	61.9007
2408.99	61.5456
2411.35	63.1006
2413.72	64.7654
2416.08	66.5688
2418.45	66.6759
2420.81	67.0813
2423.17	67.3563
2425.53	67.7365
2427.89	66.7589
2430.25	67.2562
2432.61	67.1263
2434.97	66.3888
2437.33	67.485
2439.69	68.0546
2442.04	68.9055
2444.4	68.2412
2446.75	67.3627
2449.1	66.3557
2451.45	65.8841
2453.81	66.342
2456.16	66.2448
2458.51	67.5515
2460.85	68.3572
2463.2	69.1504
2465.55	68.9051
2467.9	68.528
2470.24	67.1831
2472.59	67.4871
2474.93	66.1511
2477.27	65.0714
2479.62	64.3553
2481.96	63.9736
2484.3	63.934
2486.64	64.2376
2488.98	65.298
2491.31	66.5323
2493.65	66.915
2495.99	67.7933
2498.32	68.0311
2500.66	68.5353
2502.99	68.1795
2505.32	67.5021
2507.66	66.8168
2509.99	65.7599
2512.32	62.6008
2514.65	63.4758
2516.98	63.5449
2519.31	64.6414
2521.63	65.94
2523.96	67.4995
2526.28	68.4931
2528.61	69.5714
2530.93	66.8245
2533.26	66.3066
2535.58	64.9066
2537.9	66.4901
2540.22	67.1797
2542.54	67.36
2544.86	67.3746
2547.18	67.3152
2549.5	66.8306
2551.81	66.4382
2554.13	66.254
2556.44	65.952
2558.76	66.5526
2561.07	66.9932
2563.38	67.3355
2565.69	66.7362
2568.01	67.1509
2570.32	67.6922
2572.62	67.1031
2574.93	66.4347
2577.24	66.2859
2579.55	66.3684
2581.85	67.216
2584.16	67.8147
2586.46	67.9524
2588.77	67.653
2591.07	67.7457
2593.37	67.965
2595.67	68.1007
2597.97	67.9534
2600.27	67.5306
2602.57	67.0083
2604.87	66.4367
2607.17	65.8779
2609.46	65.3663
2611.76	64.7513
2614.05	64.4107
2616.35	64.3227
2618.64	63.8514
2620.93	63.294
2623.22	62.5953
2625.51	61.7501
2627.8	60.94
2630.09	60.5636
2632.38	60.7333
2634.67	61.968
2636.96	63.7667
2639.24	65.2801
2641.53	66.3525
2643.81	67.0733
2646.09	67.4708
2648.38	67.546
2650.66	67.4063
2652.94	67.0209
2655.22	66.4481
2657.5	65.7683
2659.78	65.0106
2662.06	64.1728
2664.33	63.3642
2666.61	62.8097
2668.88	62.8367
2671.16	63.287
2673.43	61.9272
2675.71	65.0682
2677.98	65.7778
2680.25	65.2711
2682.52	65.1049
2684.79	65.7024
2687.06	66.1075
2689.33	65.473
2691.6	64.9945
2693.86	65.6995
2696.13	66.3988
2698.39	67.1434
2700.66	67.9441
2702.92	67.0539
2705.18	66.6507
2707.45	64.3632
2709.71	64.733
2711.97	64.0615
2714.23	63.346
2716.49	64.5483
2718.74	63.9743
2721	63.783
2723.26	63.6818
2725.51	64.3196
2727.77	65.4915
2730.02	66.5891
2732.28	67.4574
2734.53	67.1889
2736.78	66.4088
2739.03	65.0101
2741.28	64.5673
2743.53	64.3936
2745.78	64.4034
2748.03	64.0373
2750.27	63.6262
2752.52	63.443
2754.77	63.2566
2757.01	61.9255
2759.26	61.2097
2761.5	61.62
2763.74	66.3821
2765.98	65.3629
2768.22	63.396
2770.46	64.7009
2772.7	65.6791
2774.94	66.6504
2777.18	67.4196
2779.42	67.9519
2781.65	68.4662
2783.89	68.6895
2786.12	67.1664
2788.36	65.8112
2790.59	64.7465
2792.82	64.0468
2795.05	63.8884
2797.28	64.2662
2799.51	65.2168
2801.74	66.3616
2803.97	65.4208
2806.2	64.5878
2808.43	63.8289
2810.65	59.0248
2812.88	59.9165
2815.1	61.1509
2817.33	62.2783
2819.55	63.1503
2821.77	63.5529
2823.99	63.4705
2826.21	62.6409
2828.43	61.9663
2830.65	61.616
2832.87	60.2103
2835.09	58.5165
2837.3	58.9816
2839.52	61.6021
2841.74	65.1204
2843.95	65.344
2846.17	65.6616
2848.38	65.8618
2850.59	66.006
2852.8	65.3307
2855.01	65.2041
2857.22	63.7429
2859.43	62.2661
2861.64	61.3615
2863.85	61.7124
2866.06	64.0631
2868.26	64.6031
2870.47	64.9478
2872.67	65.3512
2874.88	65.1669
2877.08	64.0686
2879.28	64.0343
2881.48	65.4391
2883.68	65.0369
2885.89	63.6632
2888.08	63.8817
2890.28	62.6867
2892.48	62.0313
2894.68	61.4407
2896.87	63.1869
2899.07	64.7857
2901.26	66.7828
2903.46	68.1573
2905.65	67.2029
2907.85	65.8181
2910.04	64.626
2912.23	62.9977
2914.42	61.8733
2916.61	60.8521
2918.8	60.6301
2920.98	60.4847
2923.17	60.7154
2925.36	61.3393
2927.54	62.2172
2929.73	63.5082
2931.91	64.6789
2934.1	65.8443
2936.28	66.6871
2938.46	66.481
2940.64	65.8523
2942.82	64.9803
2945	64.2756
2947.18	63.5254
2949.36	62.5979
2951.54	61.7859
2953.72	60.6599
2955.89	61.3348
2958.07	62.8501
2960.24	65.1381
2962.42	67.4155
2964.59	66.5986
2966.76	64.7245
2968.93	63.2482
2971.1	62.41
2973.27	60.1205
2975.44	57.6333
2977.61	57.5811
2979.78	58.9416
2981.95	61.2546
2984.11	62.6095
2986.28	63.2504
2988.45	62.2876
2990.61	62.0086
2992.77	62.2296
2994.94	61.8736
2997.1	58.9211
2999.26	59.0636
3001.42	63.0366
3003.58	65.4744
3005.74	63.7797
3007.9	64.5528
3010.06	62.7733
3012.21	61.5888
3014.37	61.9915
3016.52	62.9167
3018.68	63.3607
3020.83	60.3047
3022.99	60.7386
3025.14	60.7725
3027.29	61.336
3029.44	65.4356
3031.59	64.0943
3033.74	62.4175
3035.89	61.7786
3038.04	60.0771
3040.19	58.6448
3042.33	57.5874
3044.48	58.1156
3046.62	59.548
3048.77	60.0793
3050.91	58.0552
3053.05	52.8595
3055.2	58.1207
3057.34	60.0574
3059.48	60.6249
3061.62	61.3673
3063.76	62.3097
3065.9	63.4517
3068.03	64.165
3070.17	64.7223
3072.31	64.7076
3074.44	63.9195
3076.58	62.442
3078.71	62.0628
3080.85	63.6748
3082.98	64.0891
3085.11	64.3071
3087.24	64.4283
3089.37	64.351
3091.5	65.6102
3093.63	66.4381
3095.76	66.9638
3097.89	66.8489
3100.02	67.5887
3102.14	68.0008
3104.27	67.4521
3106.39	65.7811
3108.52	65.2003
3110.64	64.5235
3112.76	64.4737
3114.89	64.4697
3117.01	64.4051
3119.13	63.4266
3121.25	61.747
3123.37	59.7463
3125.49	59.7809
3127.6	60.8576
3129.72	62.7186
3131.84	64.4138
3133.95	65.6967
3136.07	66.1322
3138.18	65.4374
3140.29	63.9308
3142.41	63.1433
3144.52	62.4197
3146.63	61.6478
3148.74	61.4397
3150.85	61.5621
3152.96	60.9617
3155.07	60.7318
3157.18	61.495
3159.28	63.0242
3161.39	65.9906
3163.5	68.1017
3165.6	68.6803
3167.71	68.527
3169.81	67.9373
3171.91	67.2146
3174.01	66.5065
3176.12	65.2346
3178.22	64.3655
3180.32	64.0607
3182.42	63.6676
3184.51	63.5097
3186.61	64.0456
3188.71	65.3124
3190.8	64.7605
3192.9	64.9983
3195	64.7291
3197.09	65.4908
3199.18	65.3797
3201.28	62.2322
3203.37	61.7727
3205.46	62.194
3207.55	63.7882
3209.64	64.2047
3211.73	64.3473
3213.82	65.14
3215.91	65.5583
3218	65.2568
3220.08	64.0662
3222.17	64.1191
3224.25	63.9574
3226.34	63.967
3228.42	63.8522
3230.5	61.109
3232.59	61.6661
3234.67	62.4087
3236.75	64.5804
3238.83	65.0495
3240.91	65.1074
3242.99	64.1095
3245.07	62.5065
3247.14	60.8778
3249.22	60.0629
3251.3	59.6556
3253.37	59.6604
3255.45	60.8287
3257.52	60.3866
3259.6	59.9166
3261.67	59.6566
3263.74	59.8162
3265.81	60.2313
3267.88	61.039
3269.95	62.2322
3272.02	63.1322
