#Acq. time (s)=	20
#Accumulations=	3
#Range (cm-¹)=	100...4000
#Windows=	1
#Auto scanning=	Off
#Autofocus=	Off
#Macrospot=	Off
#AutoExposure=	Off
#Spike filter=	Multiple accum.
#Delay time (s)=	0
#Binning=	1
#Readout mode=	Signal
#DeNoise=	Lite
#ICS correction=	Off
#Dark correction=	Off
#Inst. Process=	Off
#Detector temperature (°C)=	-60.09
#Instrument=	LabRAM HR Evol
#Detector=	SIN-EM FIVIS
#Objective=	x50_VIS_LWD
#Grating=	150 (500nm)
#ND Filter=	100%
#Laser=	633nm_Edge
#Hole=	30.0125
#Temperature=	0
#Range=	Visible
#StageXY=	75x50mm Scan+
#StageZ=	Z motor
#X (µm)=	7466
#Y (µm)=	4175.7
#Z (µm)=	-32.7
#Full time(mm:ss)=	1:02
#Project=	Buranga
#Sample=	BU18FA20_C
#Site=	C_Bertoss1
#Title=	20-C_brt1_FI06
#Remark=	
#Date=	30.07.2019 14:32
#Acquired=	30.07.2019 14:32:44
100.38	405.615
103.641	372.535
106.898	344.934
110.156	319.481
113.411	295.455
116.666	273.733
119.918	256.342
123.17	241.832
126.419	229.248
129.669	216.887
132.916	208.793
136.163	203.601
139.407	200.39
142.651	197.923
145.892	196.153
149.134	194.75
152.372	183.298
155.611	178.617
158.847	174.922
162.083	171.638
165.316	169.875
168.548	170.453
171.781	173.166
175.01	165.55
178.239	159.36
181.466	154.765
184.693	151.429
187.917	149.693
191.139	148.54
194.362	147.847
197.582	147.632
200.802	147.378
204.02	146.818
207.236	145.907
210.452	144.798
213.665	143.846
216.877	143.473
220.089	144.924
223.299	148.769
226.508	155.221
229.715	164.474
232.92	165.216
236.126	191.549
239.329	236.949
242.53	294.15
245.732	269.767
248.931	239.374
252.128	216.626
255.326	201.049
258.521	192.558
261.714	189.165
264.906	193.139
268.099	195.814
271.288	202.134
274.477	210.163
277.665	218.909
280.851	209
284.035	256.03
287.218	283.863
290.402	325.796
293.582	314.26
296.761	278.422
299.939	244.375
303.117	216.814
306.293	194.649
309.466	179.529
312.639	172.276
315.811	172.028
318.982	175.526
322.151	178.588
325.318	216.733
328.484	261.549
331.651	329.624
334.814	359.987
337.977	312.061
341.138	269.085
344.297	234.6
347.456	202.051
350.614	184.616
353.77	176.975
356.925	182.67
360.078	190.971
363.23	201.07
366.381	211.065
369.53	219.712
372.68	219.573
375.827	211.402
378.972	200.881
382.116	187.156
385.259	172.566
388.401	160.007
391.541	154.828
394.681	152.278
397.818	151.873
400.956	152.268
404.092	153.268
407.226	154.893
410.359	156.603
413.49	158.464
416.62	160.36
419.749	163.015
422.877	167.305
426.003	170.473
429.128	185.315
432.252	202.397
435.375	216.992
438.496	224.301
441.616	260.816
444.735	267.902
447.852	262.104
450.969	257.146
454.084	252.079
457.197	246.07
460.31	239.384
463.421	230.955
466.531	220.732
469.64	207.618
472.747	192.822
475.853	179.413
478.958	170.531
482.062	163.505
485.164	159.094
488.265	155.787
491.365	152.347
494.464	147.106
497.561	144.073
500.657	149.342
503.752	154.386
506.844	156.524
509.937	159.015
513.028	160.581
516.117	161.336
519.206	161.827
522.293	162.085
525.38	161.905
528.464	161.081
531.548	159.301
534.63	158.411
537.71	157.034
540.79	155.711
543.869	154.875
546.946	153.278
550.022	152.806
553.097	151.337
556.169	147.401
559.242	141.966
562.313	139.083
565.383	139.41
568.452	146.834
571.519	148.246
574.584	147.351
577.649	146.021
580.713	144.93
583.775	145.311
586.837	142.875
589.895	151.635
592.954	164.279
596.012	180.648
599.068	198.284
602.122	223.779
605.176	244.323
608.229	251.326
611.28	248.07
614.329	233.308
617.378	222.064
620.426	217.946
623.473	215.411
626.517	216.317
629.561	217.915
632.604	220.599
635.644	222.757
638.684	223.09
641.724	219.146
644.76	213.166
647.797	203.569
650.833	202.468
653.867	205.105
656.899	207.818
659.931	218.115
662.96	225.626
665.99	225.635
669.018	219.337
672.044	206.225
675.07	190.773
678.095	176.585
681.117	164.237
684.139	153.753
687.16	145.081
690.179	137.975
693.197	132.208
696.213	128.3
699.23	125.912
702.245	125.44
705.257	127.156
708.27	129.335
711.28	130.877
714.29	128.611
717.298	124.657
720.306	120.398
723.312	117.723
726.316	116.318
729.321	116.769
732.322	117.895
735.324	120.283
738.323	121.747
741.323	124.408
744.32	125.965
747.317	126.297
750.311	125.807
753.306	124.651
756.298	123.947
759.291	123.749
762.28	123.72
765.27	124.016
768.258	123.635
771.245	123.382
774.23	123.195
777.215	122.991
780.198	122.544
783.179	121.849
786.161	121.599
789.14	121.33
792.119	121.382
795.096	120.131
798.073	118.064
801.047	117.155
804.021	116.837
806.994	117.121
809.965	113.986
812.936	115.658
815.904	119.289
818.871	121.848
821.839	123.055
824.804	123.128
827.769	123.598
830.732	124.273
833.693	124.813
836.655	125.123
839.614	125.146
842.572	125.044
845.53	125.093
848.485	124.185
851.44	124.287
854.394	125.2
857.346	127.743
860.297	129.066
863.248	125.572
866.197	125.18
869.144	125.864
872.091	125.726
875.037	123.708
877.981	124.175
880.924	126.791
883.867	129.7
886.807	131.693
889.746	133.646
892.685	134.594
895.623	133.088
898.559	131.729
901.493	130.676
904.427	130.016
907.359	129.828
910.292	130.125
913.222	130.838
916.151	132.028
919.078	134.081
922.006	136.15
924.932	137.709
927.856	138.18
930.779	138.699
933.701	140.076
936.622	142.465
939.543	147.053
942.461	153.03
945.379	160.035
948.295	166.725
951.21	174.838
954.124	184.213
957.037	194.722
959.95	204.272
962.861	214.395
965.77	220.881
968.678	225.065
971.585	232.397
974.491	243.644
977.396	256.986
980.3	279.015
983.202	314.804
986.104	361.247
989.005	399.945
991.904	470.717
994.802	504.511
997.699	493.934
1000.6	450.572
1003.49	407.548
1006.38	371.12
1009.28	344.533
1012.17	326.038
1015.06	310.984
1017.95	317.489
1020.83	332.236
1023.72	351.63
1026.61	372.941
1029.49	391.686
1032.37	393.276
1035.26	361.133
1038.14	325.116
1041.02	286.623
1043.9	249.603
1046.77	216.428
1049.65	205.356
1052.53	204.246
1055.4	195.836
1058.27	188.914
1061.15	172.648
1064.02	163.233
1066.88	165.046
1069.75	165.329
1072.62	165.035
1075.49	165.608
1078.35	165.548
1081.22	169.924
1084.08	178.604
1086.94	187.917
1089.8	194.377
1092.66	201.665
1095.52	209.583
1098.38	212.2
1101.23	221.706
1104.09	227.016
1106.94	225.496
1109.8	215.511
1112.65	196.708
1115.5	180.088
1118.35	166.137
1121.2	154.562
1124.05	144.593
1126.89	137.472
1129.74	132.466
1132.58	131.282
1135.42	136.682
1138.27	144.362
1141.11	148.747
1143.95	154.893
1146.78	160.45
1149.62	166.011
1152.46	170.733
1155.29	180.094
1158.13	185.476
1160.96	188.677
1163.79	179.566
1166.62	164.759
1169.45	146.978
1172.28	137.266
1175.11	122.508
1177.93	121.259
1180.76	118.401
1183.59	118.907
1186.41	117.939
1189.23	115.22
1192.05	112.472
1194.87	109.179
1197.69	107.454
1200.51	106.863
1203.32	106.661
1206.14	108.121
1208.95	107.769
1211.77	106.702
1214.58	105.358
1217.39	103.873
1220.2	102.362
1223.01	101.319
1225.82	101.006
1228.62	101.159
1231.43	101.821
1234.23	102.636
1237.04	103.476
1239.84	104.046
1242.64	104.407
1245.44	103.398
1248.24	102.63
1251.04	103.193
1253.83	104.054
1256.63	104.718
1259.42	105.502
1262.22	106.518
1265.01	108.447
1267.8	107.789
1270.59	104.778
1273.38	96.821
1276.17	99.1236
1278.96	105.226
1281.74	155
1284.53	273.557
1287.31	197.293
1290.1	119.145
1292.88	110.905
1295.66	103.645
1298.44	104.406
1301.22	102.005
1303.99	99.9872
1306.77	99.4308
1309.55	99.9082
1312.32	100.248
1315.09	100.602
1317.87	100.935
1320.64	100.54
1323.41	99.2148
1326.18	98.0866
1328.94	97.1868
1331.71	96.617
1334.48	96.2554
1337.24	96.1142
1340	95.4258
1342.77	92.4692
1345.53	92.6541
1348.29	90.6364
1351.05	90.1604
1353.81	90.1649
1356.56	91.7783
1359.32	93.3831
1362.08	94.8666
1364.83	96.1949
1367.58	97.1858
1370.33	98.1277
1373.09	99.2038
1375.84	99.811
1378.58	100.029
1381.33	100.353
1384.08	122.367
1386.82	281
1389.57	396
1392.31	163
1395.06	95.3233
1397.8	98.6363
1400.54	100.498
1403.28	101.777
1406.02	102.032
1408.75	105.441
1411.49	103.795
1414.22	100.026
1416.96	95.0174
1419.69	91.5443
1422.42	88.3056
1425.15	88.5831
1427.88	87.357
1430.61	86.3129
1433.34	86.3247
1436.07	86.0044
1438.79	86.2813
1441.52	86.9543
1444.24	87.6533
1446.96	87.6617
1449.69	87.4649
1452.41	86.6967
1455.13	81.7116
1457.84	82.6106
1460.56	85.1336
1463.28	84.8718
1465.99	84.5439
1468.71	84.2371
1471.42	83.9848
1474.13	83.3059
1476.84	83.4774
1479.55	84.0328
1482.26	84.5732
1484.97	85.1566
1487.68	85.5158
1490.39	86.0104
1493.09	86.5269
1495.79	86.5667
1498.5	86.3261
1501.2	85.653
1503.9	84.5608
1506.6	83.6149
1509.3	82.5878
1512	81.7602
1514.69	80.7777
1517.39	81.3539
1520.08	82.3913
1522.78	82.4092
1525.47	81.7017
1528.16	80.7411
1530.85	79.568
1533.54	78.4776
1536.23	77.8368
1538.92	77.9678
1541.61	77.8847
1544.29	77.6828
1546.98	74.3587
1549.66	77.3572
1552.34	80.2355
1555.02	81.1453
1557.7	81.5027
1560.38	81.1016
1563.06	81.2822
1565.74	82.5646
1568.42	83.9818
1571.09	84.5365
1573.77	84.2371
1576.44	82.9479
1579.11	82.4512
1581.78	82.1428
1584.45	82.2968
1587.12	82.3565
1589.79	82.5504
1592.46	82.7996
1595.12	83.2897
1597.79	83.1431
1600.45	82.7408
1603.12	81.9798
1605.78	81.0179
1608.44	79.2244
1611.1	79.2285
1613.76	79.4014
1616.42	79.6335
1619.08	79.8972
1621.73	80.0283
1624.39	80.2251
1627.04	80.4951
1629.7	80.9127
1632.35	80.9711
1635	80.0405
1637.65	78.6682
1640.3	77.551
1642.95	77.2051
1645.59	76.6794
1648.24	77.4937
1650.88	78.0578
1653.53	78.6695
1656.17	79.084
1658.82	79.9619
1661.46	80.8488
1664.1	81.7563
1666.74	82.3088
1669.37	82.3932
1672.01	82.1475
1674.65	81.5682
1677.28	81.1402
1679.92	81.1746
1682.55	81.297
1685.18	81.5276
1687.82	81.8316
1690.44	82.4395
1693.07	83.2622
1695.7	83.1308
1698.33	81.6744
1700.96	79.6845
1703.58	77.5435
1706.21	76.1669
1708.83	75.295
1711.45	75.2882
1714.07	77.0179
1716.69	78.2367
1719.31	79.3821
1721.93	79.4022
1724.55	78.5799
1727.17	78.0848
1729.78	78.3271
1732.4	78.9137
1735.01	78.9161
1737.62	79.32
1740.23	79.6223
1742.85	79.7831
1745.46	79.7268
1748.07	78.7864
1750.67	77.7248
1753.28	76.616
1755.89	76.2414
1758.49	76.4581
1761.09	77.2324
1763.7	77.5515
1766.3	76.9384
1768.9	76.5013
1771.5	76.1932
1774.1	76.0137
1776.7	75.8679
1779.29	75.8808
1781.89	76.023
1784.49	76.1961
1787.08	76.6703
1789.67	77.7379
1792.27	77.9329
1794.86	77.8057
1797.45	77.5605
1800.04	76.7915
1802.62	74.9567
1805.21	74.0489
1807.8	73.9831
1810.38	73.6847
1812.97	75.2317
1815.55	75.8639
1818.14	75.5882
1820.72	76.278
1823.3	77.1027
1825.88	77.8745
1828.46	77.6877
1831.03	76.9244
1833.61	76.0417
1836.19	75.0882
1838.76	74.3641
1841.34	74.317
1843.91	75.0495
1846.48	76.1996
1849.05	76.4363
1851.62	76.1627
1854.19	76.7485
1856.76	76.3443
1859.33	75.0685
1861.89	73.8409
1864.46	73.1385
1867.02	73.3005
1869.59	73.5098
1872.15	73.8525
1874.71	74.3398
1877.27	75.1727
1879.83	76.0204
1882.39	76.2383
1884.95	76.8077
1887.51	77.5248
1890.06	78.1929
1892.62	77.8235
1895.17	77.2397
1897.72	76.7736
1900.27	76.5966
1902.83	76.644
1905.38	76.1116
1907.93	75.7798
1910.47	69.9994
1913.02	72.2699
1915.57	73.8815
1918.11	75.18
1920.66	74.2698
1923.2	73.7318
1925.74	72.8479
1928.29	72.5513
1930.83	72.5486
1933.37	72.4856
1935.91	71.6508
1938.44	71.4997
1940.98	71.6964
1943.52	71.9814
1946.05	72.1827
1948.59	72.3729
1951.12	72.5649
1953.65	72.6253
1956.18	72.1277
1958.72	71.9592
1961.25	75.2184
1963.77	72.3169
1966.3	71.5246
1968.83	71.8599
1971.35	72.7296
1973.88	73.1955
1976.4	73.5424
1978.93	73.6668
1981.45	73.5846
1983.97	73.1796
1986.49	73.8984
1989.01	74.6427
1991.53	75.1173
1994.05	75.2897
1996.56	74.9568
1999.08	74.5099
2001.59	74.0056
2004.11	73.4308
2006.62	72.6537
2009.13	71.6353
2011.64	70.2271
2014.15	70.2227
2016.66	70.9614
2019.17	71.1983
2021.68	70.9362
2024.18	70.2061
2026.69	69.8715
2029.19	70.0375
2031.7	70.0821
2034.2	70.291
2036.7	70.7306
2039.2	71.0643
2041.7	72.0855
2044.2	73.2004
2046.7	73.632
2049.2	72.641
2051.7	72.3468
2054.19	71.6225
2056.69	71.5696
2059.18	71.4878
2061.67	71.1298
2064.16	71.0676
2066.65	71.1164
2069.15	71.1181
2071.63	71.1752
2074.12	71.3914
2076.61	71.7004
2079.1	71.9398
2081.58	71.8262
2084.07	71.8927
2086.55	73.176
2089.03	73.5734
2091.51	73.8579
2094	73.7884
2096.47	72.3104
2098.95	71.1438
2101.43	71.2648
2103.91	71.4338
2106.39	71.9764
2108.86	71.8789
2111.34	71.2012
2113.81	70.3806
2116.28	69.5326
2118.76	68.3297
2121.23	68.1097
2123.7	68.3291
2126.17	67.1678
2128.63	64.8991
2131.1	65.1021
2133.57	66.0144
2136.03	67.0611
2138.5	68.881
2140.96	69.2418
2143.43	69.3364
2145.89	69.4807
2148.35	69.6402
2150.81	69.6716
2153.27	70.3601
2155.73	70.5235
2158.18	70.7224
2160.64	71.2329
2163.1	73.5525
2165.55	72.711
2168	69.1294
2170.46	66.2476
2172.91	64.508
2175.36	64.352
2177.81	65.2469
2180.26	66.5013
2182.71	68.369
2185.16	69.5489
2187.6	70.569
2190.05	71.2736
2192.5	70.8028
2194.94	69.9748
2197.38	68.6745
2199.83	67.585
2202.27	66.7294
2204.71	66.2014
2207.15	65.7428
2209.59	65.5756
2212.02	65.6205
2214.46	65.9076
2216.9	65.6624
2219.33	67.0515
2221.77	69.2736
2224.2	69.1174
2226.64	68.7943
2229.07	70.0735
2231.5	68.0148
2233.93	67.8764
2236.36	68.7591
2238.79	71.1628
2241.21	71.6744
2243.64	71.1963
2246.06	70.888
2248.49	70.2058
2250.91	69.7327
2253.34	69.4421
2255.76	69.7026
2258.18	71.7012
2260.6	71.7579
2263.02	72.2081
2265.44	71.251
2267.86	71.1624
2270.27	71.031
2272.69	71.4326
2275.11	70.7435
2277.52	67.8258
2279.93	68.1841
2282.35	69.0074
2284.76	70.613
2287.17	70.9033
2289.58	69.9692
2291.99	68.5689
2294.4	67.4378
2296.8	66.669
2299.21	66.4234
2301.62	67.0135
2304.02	68.2622
2306.43	69.0689
2308.83	69.8485
2311.23	70.5238
2313.63	71.1951
2316.03	71.752
2318.43	71.0808
2320.83	69.6989
2323.23	69.4237
2325.63	69.5671
2328.02	69.6069
2330.42	69.5787
2332.81	69.7051
2335.21	69.9756
2337.6	68.781
2339.99	67.455
2342.38	66.8983
2344.77	67.1666
2347.16	68.1193
2349.55	68.6558
2351.94	68.9712
2354.32	68.4639
2356.71	67.8374
2359.1	66.3866
2361.48	65.8377
2363.86	66.3326
2366.25	67.2682
2368.63	69.4296
2371.01	69.1488
2373.39	68.7513
2375.77	68.3648
2378.15	68.2664
2380.52	68.255
2382.9	68.5743
2385.28	68.26
2387.65	66.4607
2390.03	64.7049
2392.4	64.2818
2394.77	65.2271
2397.14	65.7757
2399.51	66.4465
2401.88	66.8577
2404.25	66.8255
2406.62	66.7769
2408.99	66.7547
2411.35	66.6656
2413.72	66.1881
2416.08	65.7077
2418.45	65.2623
2420.81	65.5354
2423.17	64.7839
2425.53	64.8876
2427.89	65.137
2430.25	65.7516
2432.61	66.8063
2434.97	67.8534
2437.33	65.3337
2439.69	63.2421
2442.04	64.1924
2444.4	66.0653
2446.75	66.1802
2449.1	66.3813
2451.45	66.6059
2453.81	66.5581
2456.16	66.3074
2458.51	65.804
2460.85	64.6639
2463.2	64.0653
2465.55	63.8488
2467.9	63.7053
2470.24	63.6825
2472.59	63.8379
2474.93	63.0871
2477.27	62.754
2479.62	62.9081
2481.96	63.5034
2484.3	64.1139
2486.64	64.7411
2488.98	65.5911
2491.31	65.9943
2493.65	65.9647
2495.99	65.3253
2498.32	63.0721
2500.66	61.1512
2502.99	61.3852
2505.32	62.1613
2507.66	61.0636
2509.99	64.1128
2512.32	65.5931
2514.65	65.4996
2516.98	65.0453
2519.31	64.5651
2521.63	62.9743
2523.96	59.6604
2526.28	58.2148
2528.61	58.3067
2530.93	63.1379
2533.26	64.1604
2535.58	64.4698
2537.9	64.7085
2540.22	64.6826
2542.54	64.1926
2544.86	61.2361
2547.18	64.0144
2549.5	63.9734
2551.81	63.7812
2554.13	63.3891
2556.44	63.0742
2558.76	62.25
2561.07	60.7926
2563.38	61.519
2565.69	62.4657
2568.01	62.8422
2570.32	62.3862
2572.62	63.0912
2574.93	63.3848
2577.24	63.5705
2579.55	63.9573
2581.85	64.4843
2584.16	63.951
2586.46	63.8147
2588.77	63.2983
2591.07	63.3415
2593.37	63.7186
2595.67	64.4143
2597.97	64.9887
2600.27	65.2267
2602.57	65.2661
2604.87	64.946
2607.17	64.45
2609.46	64.0746
2611.76	62.6947
2614.05	62.4271
2616.35	62.9447
2618.64	63.4044
2620.93	63.5152
2623.22	63.0807
2625.51	62.4064
2627.8	61.4657
2630.09	60.6619
2632.38	60.2499
2634.67	60.038
2636.96	60.4297
2639.24	61.0951
2641.53	61.6635
2643.81	62.2026
2646.09	62.7352
2648.38	63.5938
2650.66	62.268
2652.94	61.0737
2655.22	59.0425
2657.5	61.3705
2659.78	61.5827
2662.06	61.7265
2664.33	61.1093
2666.61	60.1222
2668.88	59.601
2671.16	59.5002
2673.43	59.666
2675.71	59.7294
2677.98	60.0457
2680.25	60.5898
2682.52	61.4783
2684.79	62.2321
2687.06	62.1985
2689.33	62.0181
2691.6	61.4988
2693.86	60.9281
2696.13	60.2804
2698.39	60.7933
2700.66	61.8615
2702.92	62.2074
2705.18	61.6175
2707.45	61.0481
2709.71	61.2004
2711.97	61.4307
2714.23	61.6627
2716.49	61.7336
2718.74	62.1938
2721	62.0772
2723.26	60.8147
2725.51	60.9413
2727.77	60.3579
2730.02	59.4253
2732.28	57.9071
2734.53	57.6777
2736.78	58.5303
2739.03	59.4792
2741.28	60.4585
2743.53	61.3367
2745.78	61.9574
2748.03	62.4292
2750.27	62.6376
2752.52	61.774
2754.77	60.7666
2757.01	60.6663
2759.26	60.8401
2761.5	61.3499
2763.74	62.2054
2765.98	62.4613
2768.22	60.7038
2770.46	60.3316
2772.7	59.8472
2774.94	59.5891
2777.18	59.3433
2779.42	58.8161
2781.65	58.1256
2783.89	58.0656
2786.12	58.1612
2788.36	57.8912
2790.59	57.7614
2792.82	58.4598
2795.05	58.8381
2797.28	59.1624
2799.51	59.5342
2801.74	59.9541
2803.97	60.3255
2806.2	60.6296
2808.43	59.3241
2810.65	57.1149
2812.88	57.1802
2815.1	57.7684
2817.33	58.6545
2819.55	59.8319
2821.77	60.2113
2823.99	60.6131
2826.21	60.6928
2828.43	61.5643
2830.65	60.7028
2832.87	59.3373
2835.09	58.6046
2837.3	58.2643
2839.52	58.2949
2841.74	58.7031
2843.95	59.0874
2846.17	58.4065
2848.38	57.3612
2850.59	57.4117
2852.8	57.8394
2855.01	59.3297
2857.22	58.5533
2859.43	57.4507
2861.64	55.7444
2863.85	52.9576
2866.06	54.1703
2868.26	55.5818
2870.47	57.1438
2872.67	58.391
2874.88	56.9592
2877.08	57.2342
2879.28	56.4771
2881.48	56.8778
2883.68	58.5688
2885.89	58.5341
2888.08	58.2028
2890.28	57.5654
2892.48	56.3534
2894.68	56.6709
2896.87	56.8914
2899.07	57.2596
2901.26	57.5444
2903.46	57.4525
2905.65	57.0183
2907.85	56.5566
2910.04	56.1698
2912.23	56.1941
2914.42	55.7257
2916.61	54.6219
2918.8	53.5
2920.98	53.0773
2923.17	55.1253
2925.36	56.545
2927.54	56.546
2929.73	55.7514
2931.91	55.1023
2934.1	55.5771
2936.28	56.335
2938.46	57.28
2940.64	56.7201
2942.82	56.6676
2945	56.9326
2947.18	57.5112
2949.36	59.0919
2951.54	58.3484
2953.72	57.9789
2955.89	58.0821
2958.07	58.4556
2960.24	58.4526
2962.42	58.2801
2964.59	58.1937
2966.76	58.2191
2968.93	58.2838
2971.1	58.5182
2973.27	58.8482
2975.44	58.2224
2977.61	56.9307
2979.78	55.1138
2981.95	54.9982
2984.11	55.5608
2986.28	55.2473
2988.45	54.9793
2990.61	54.8046
2992.77	54.7595
2994.94	54.767
2997.1	54.8229
2999.26	55.063
3001.42	55.427
3003.58	55.8277
3005.74	56.2613
3007.9	56.7763
3010.06	57.4206
3012.21	57.1806
3014.37	56.4572
3016.52	55.6797
3018.68	55.6971
3020.83	56.6147
3022.99	57.5778
3025.14	56.9695
3027.29	56.7147
3029.44	56.1677
3031.59	55.4574
3033.74	55.3181
3035.89	55.7425
3038.04	56.6302
3040.19	57.4291
3042.33	56.5359
3044.48	56.3177
3046.62	56.5034
3048.77	57.1828
3050.91	56.7287
3053.05	56.3442
3055.2	56.6318
3057.34	55.814
3059.48	55.7628
3061.62	56.2577
3063.76	56.965
3065.9	57.5629
3068.03	57.696
3070.17	57.7529
3072.31	57.7375
3074.44	58.1624
3076.58	58.8148
3078.71	58.6286
3080.85	58.3919
3082.98	57.725
3085.11	57.2999
3087.24	58.1475
3089.37	58.8021
3091.5	59.0971
3093.63	59.19
3095.76	58.9807
3097.89	58.9102
3100.02	58.0364
3102.14	56.4459
3104.27	57.0455
3106.39	50.6076
3108.52	57.207
3110.64	58.7683
3112.76	59.9294
3114.89	60.692
3117.01	60.821
3119.13	60.0921
3121.25	58.8127
3123.37	57.6078
3125.49	56.5397
3127.6	55.7063
3129.72	55.9416
3131.84	56.8503
3133.95	57.7135
3136.07	59.4603
3138.18	60.4401
3140.29	60.7525
3142.41	60.936
3144.52	60.9654
3146.63	60.9017
3148.74	59.961
3150.85	59.1805
3152.96	58.6426
3155.07	58.3238
3157.18	58.3745
3159.28	57.9613
3161.39	57.2635
3163.5	57.0822
3165.6	57.4833
3167.71	58.6647
3169.81	58.9109
3171.91	59.4144
3174.01	59.9328
3176.12	60.1513
3178.22	60.2944
3180.32	60.2817
3182.42	60.774
3184.51	60.8927
3186.61	61.0214
3188.71	60.4682
3190.8	62.2199
3192.9	63.9869
3195	64.0372
3197.09	63.3647
3199.18	62.4595
3201.28	61.8303
3203.37	61.4279
3205.46	61.573
3207.55	60.4587
3209.64	59.7985
3211.73	59.475
3213.82	59.8095
3215.91	60.5913
3218	61.4492
3220.08	62.3569
3222.17	62.8248
3224.25	63.1833
3226.34	62.5584
3228.42	62.1329
3230.5	62.4645
3232.59	62.6687
3234.67	61.7173
3236.75	60.397
3238.83	58.9999
3240.91	57.7651
3242.99	57.0635
3245.07	56.8304
3247.14	57.8816
3249.22	59.3776
3251.3	59.8411
3253.37	59.9078
3255.45	59.4708
3257.52	58.9488
3259.6	58.5868
3261.67	58.9879
3263.74	59.2634
3265.81	58.9717
3267.88	58.3746
