#Acq. time (s)=	30
#Accumulations=	2
#Range (cm-¹)=	1200...2365
#Windows=	3
#Auto scanning=	Off
#Autofocus=	Off
#Macrospot=	Off
#AutoExposure=	Off
#Spike filter=	Multiple accum.
#Delay time (s)=	2
#Binning=	1
#Readout mode=	Signal
#DeNoise=	Off
#ICS correction=	On
#Dark correction=	Off
#Inst. Process=	Off
#Detector Gain=	Best Dynamic
#Detector ADC=	50 kHz HS
#Detector temperature (°C)=	-60.09
#Instrument=	LabRAM HR Evol
#Detector=	SIN-EM FIVIS
#Objective=	x100_VIS_LWD
#Grating=	1800 (450-850nm)
#ND Filter=	100%
#Laser=	532nm_Edge
#Hole=	100.021
#Temperature=	0
#Range=	Visible
#StageXY=	75x50mm Scan+
#StageZ=	Z motor
#X (µm)=	0
#Y (µm)=	0
#Z (µm)=	-18
#Full time(mm:ss)=	3:18
#Project=	21_11_26
#Sample=	BU02Aw
#Site=	
#Title=	BU02aW-A-FF1-FI02-V_1800 (450-850nm)_532nm_Edge_100%_x100_VIS_LWD_H100um_30sX2
#Remark=	
#Date=	26.11.2021 11:26
#Acquired=	26.11.2021 11:26:23
1202.72	72.5908
1203	73.772
1203.28	69.4865
1203.56	81.2879
1203.84	69.3904
1204.11	75.8084
1204.39	72.5532
1204.67	75.7809
1204.95	63.9628
1205.23	66.0995
1205.5	76.8185
1205.78	78.9342
1206.06	70.3083
1206.34	71.3468
1206.61	69.1675
1206.89	76.6385
1207.17	74.4584
1207.45	65.8599
1207.73	67.984
1208	74.3904
1208.28	73.3071
1208.56	73.2914
1208.84	67.9193
1209.11	67.8999
1209.39	75.3667
1209.67	74.2876
1209.95	70.0074
1210.23	73.2074
1210.5	65.71
1210.78	75.2972
1211.06	73.1305
1211.34	77.3766
1211.61	68.8089
1211.89	67.7207
1212.17	71.9586
1212.45	65.5339
1212.72	70.8441
1213	66.5609
1213.28	69.7356
1213.56	69.7209
1213.83	70.776
1214.11	68.6311
1214.39	72.892
1214.67	69.6999
1214.94	73.9587
1215.22	70.7634
1215.5	69.6952
1215.78	72.8846
1216.05	78.2002
1216.33	73.9225
1216.61	72.8316
1216.89	70.6726
1217.16	72.7696
1217.44	75.9343
1217.72	65.2886
1218	68.4549
1218.27	72.6853
1218.55	67.3607
1218.83	75.8361
1219.1	69.4594
1219.38	73.6981
1219.66	62.0194
1219.94	67.3151
1220.21	66.2418
1220.49	71.5421
1220.77	69.4202
1221.04	72.5973
1221.32	76.8312
1221.6	71.5151
1221.88	66.201
1222.15	69.3604
1222.43	73.5701
1222.71	69.3
1222.98	72.4396
1223.26	70.2887
1223.54	72.3707
1223.81	67.055
1224.09	68.0873
1224.37	68.0625
1224.65	70.1569
1224.92	69.0869
1225.2	69.0768
1225.48	66.9628
1225.76	73.3045
1226.03	73.3114
1226.31	71.2082
1226.59	68.0357
1226.86	74.3649
1227.14	69.0719
1227.42	70.1147
1227.69	65.8582
1227.97	70.0095
1228.25	72.0729
1228.52	73.0836
1228.8	70.91
1229.08	71.9059
1229.35	69.7978
1229.63	66.8097
1229.91	69.0623
1230.18	76.3785
1230.46	74.1982
1230.74	71.0114
1231.01	73.125
1231.29	74.1339
1231.57	67.6834
1231.84	68.7458
1232.12	67.6929
1232.4	73.9945
1232.67	71.8835
1232.95	72.9315
1233.23	80.2806
1233.5	75.0196
1233.78	77.1178
1234.06	69.7676
1234.33	81.3297
1234.61	70.83
1234.89	65.5853
1235.16	68.7485
1235.44	70.8554
1235.71	75.066
1235.99	72.9717
1236.27	74.0284
1236.54	72.9749
1236.82	70.8624
1237.1	70.8504
1237.37	77.1394
1237.65	75.0115
1237.93	76.034
1238.2	77.0558
1238.48	81.2247
1238.76	76.9986
1239.03	78.0252
1239.31	80.1079
1239.58	71.7088
1239.86	72.7489
1240.14	75.8879
1240.41	71.6919
1240.69	69.5943
1240.97	71.6919
1241.24	72.7431
1241.52	72.745
1241.79	74.834
1242.07	76.9157
1242.35	83.1935
1242.62	79.0025
1242.9	73.7667
1243.18	88.4502
1243.45	81.1233
1243.73	77.9766
1244	79.0247
1244.28	76.9324
1244.56	81.124
1244.83	83.2144
1245.11	73.772
1245.39	80.0428
1245.66	78.9742
1245.94	83.1352
1246.21	83.1067
1246.49	74.7197
1246.76	78.8998
1247.04	82.0396
1247.32	83.0839
1247.59	78.8896
1247.87	83.0736
1248.14	75.7384
1248.42	86.1704
1248.7	85.1069
1248.97	84.0561
1249.25	78.8309
1249.52	85.1119
1249.8	83.0136
1250.08	85.1018
1250.35	80.9184
1250.63	92.403
1250.9	88.1966
1251.18	89.2213
1251.45	81.8882
1251.73	79.7834
1252.01	89.1702
1252.28	84.9755
1252.56	87.0475
1252.83	83.8983
1253.11	88.055
1253.39	81.7757
1253.66	76.5494
1253.94	82.8099
1254.21	84.9097
1254.49	83.8811
1254.76	82.8544
1255.04	90.17
1255.31	83.9041
1255.59	85.9984
1255.87	81.8205
1256.14	85.9926
1256.42	90.1728
1256.69	81.8244
1256.97	82.88
1257.24	86.0169
1257.52	86.0116
1257.79	89.1316
1258.07	97.4769
1258.35	96.4244
1258.62	109.989
1258.9	126.679
1259.17	119.342
1259.45	117.251
1259.72	113.089
1260	94.313
1260.27	105.84
1260.55	105.812
1260.82	104.741
1261.1	114.094
1261.37	117.195
1261.65	129.693
1261.92	121.364
1262.2	139.222
1262.48	142.54
1262.75	156.229
1263.02	173.729
1263.3	186.038
1263.58	212.02
1263.85	244.583
1264.13	258.349
1264.4	264.865
1264.68	268.135
1264.95	279.465
1265.23	267.899
1265.5	226.092
1265.78	192.63
1266.05	164.383
1266.33	150.798
1266.6	141.403
1266.88	125.745
1267.15	124.723
1267.43	119.524
1267.7	111.188
1267.98	110.174
1268.25	103.931
1268.53	107.117
1268.8	102.966
1269.08	99.8429
1269.35	101.954
1269.63	101.966
1269.9	98.8157
1270.18	109.268
1270.45	99.8094
1270.73	108.163
1271	107.089
1271.28	109.163
1271.55	108.109
1271.83	117.51
1272.1	100.776
1272.38	112.312
1272.65	107.108
1272.93	99.8171
1273.2	108.223
1273.47	105.107
1273.75	108.279
1274.03	105.162
1274.3	105.189
1274.57	109.401
1274.85	99.965
1275.12	109.4
1275.4	104.155
1275.67	106.264
1275.95	114.675
1276.22	113.645
1276.5	98.9763
1276.77	107.392
1277.05	101.112
1277.32	121.079
1277.6	114.806
1277.87	112.731
1278.14	109.605
1278.42	116.984
1278.69	115.954
1278.97	118.09
1279.24	127.575
1279.52	141.271
1279.79	144.418
1280.07	142.302
1280.34	150.699
1280.61	157.002
1280.89	184.36
1281.16	204.363
1281.44	217.04
1281.71	259.206
1281.99	311.872
1282.26	392.915
1282.53	483.484
1282.81	665.677
1283.08	879.253
1283.36	1195.51
1283.63	1573.96
1283.91	2189.17
1284.18	2740.79
1284.45	3284.75
1284.73	3608.66
1285	3338.5
1285.28	2635.62
1285.55	1902.37
1285.83	1265.8
1286.1	824.675
1286.37	558.422
1286.65	430.993
1286.92	306.672
1287.2	272.975
1287.47	232.951
1287.75	208.705
1288.02	182.356
1288.29	170.76
1288.57	158.129
1288.84	153.924
1289.12	154.987
1289.39	140.273
1289.66	136.086
1289.94	132.951
1290.21	128.766
1290.49	121.413
1290.76	125.626
1291.03	123.505
1291.31	115.072
1291.58	122.442
1291.86	103.482
1292.13	115.062
1292.4	114.01
1292.68	108.75
1292.95	108.743
1293.22	107.681
1293.5	107.686
1293.77	111.934
1294.05	99.3326
1294.32	104.646
1294.59	110.985
1294.87	97.2759
1295.14	106.759
1295.42	101.504
1295.69	102.601
1295.96	102.657
1296.24	97.4475
1296.51	101.715
1296.79	107.01
1297.06	97.4991
1297.33	99.6018
1297.61	103.811
1297.88	103.789
1298.15	91.0896
1298.43	93.177
1298.7	93.1874
1298.97	97.4036
1299.25	91.0516
1299.52	94.2058
1299.79	94.1901
1300.07	95.244
1300.34	88.9257
1300.62	94.2135
1300.89	94.2155
1301.16	98.4339
1301.44	92.0949
1301.71	98.434
1301.98	84.7216
1302.25	95.2963
1302.53	92.135
1302.8	91.0808
1303.08	84.741
1303.35	95.2975
1303.62	85.7812
1303.9	94.2128
1304.17	89.9851
1304.44	89.9866
1304.72	91.0421
1304.99	86.8166
1305.26	83.6379
1305.54	82.567
1305.81	86.7692
1306.08	88.8595
1306.35	88.8372
1306.63	89.8738
1306.9	90.9198
1307.18	89.8643
1307.45	89.8717
1307.72	83.5453
1308	81.4341
1308.27	84.597
1308.54	83.5462
1308.81	81.4312
1309.09	85.6541
1309.36	83.5571
1309.63	79.3479
1309.91	87.8009
1310.18	80.421
1310.45	86.7503
1310.73	90.9652
1311	85.6883
1311.27	87.8021
1311.55	82.5293
1311.82	88.865
1312.09	84.6497
1312.37	94.1649
1312.64	89.9548
1312.91	95.24
1313.18	83.6205
1313.46	81.4953
1313.73	87.8259
1314	78.317
1314.28	86.7549
1314.55	87.8096
1314.82	84.6475
1315.09	84.6553
1315.37	83.6094
1315.64	87.8427
1315.91	84.6853
1316.18	92.0895
1316.46	91.0288
1316.73	92.0786
1317	78.3449
1317.28	88.9027
1317.55	87.8459
1317.82	86.8017
1318.09	86.8096
1318.37	79.4198
1318.64	80.4788
1318.91	77.3107
1319.18	87.8751
1319.46	86.8155
1319.73	81.5294
1320	85.7513
1320.28	79.4178
1320.55	86.8133
1320.82	92.09
1321.09	87.8511
1321.37	79.3827
1321.64	85.6939
1321.91	81.4446
1322.18	77.2085
1322.46	81.4056
1322.73	83.5035
1323	87.7098
1323.27	84.5327
1323.55	80.2987
1323.82	82.4161
1324.09	95.0724
1324.36	85.5832
1324.64	85.58
1324.91	82.4174
1325.18	78.1967
1325.45	83.4735
1325.73	87.6683
1326	84.467
1326.27	79.152
1326.54	79.0951
1326.81	81.1755
1327.09	85.3768
1327.36	85.4046
1327.63	89.6726
1327.9	82.3295
1328.18	82.3579
1328.45	79.2264
1328.72	78.2021
1328.99	89.831
1329.27	80.3432
1329.54	79.2776
1329.81	90.8911
1330.08	77.1713
1330.35	84.5489
1330.63	77.1537
1330.9	86.6303
1331.17	83.446
1331.44	74.9881
1331.71	76.0119
1331.99	85.4567
1332.26	88.585
1332.53	79.0869
1332.8	88.5322
1333.07	84.2936
1333.35	79.0055
1333.62	85.2859
1333.89	84.2085
1334.16	78.931
1334.43	85.2099
1334.71	86.2367
1334.98	83.0659
1335.25	80.9488
1335.52	84.0804
1335.79	75.671
1336.07	82.9995
1336.34	90.3262
1336.61	84.0204
1336.88	88.2022
1337.15	73.5146
1337.43	82.9411
1337.7	76.6445
1337.97	70.3471
1338.24	80.8069
1338.51	81.8351
1338.78	74.4907
1339.06	77.6192
1339.33	88.0813
1339.6	75.513
1339.87	78.6565
1340.14	83.8961
1340.42	83.8972
1340.69	87.0415
1340.96	81.8072
1341.23	80.7576
1341.5	82.8478
1341.77	81.794
1342.04	83.8783
1342.32	73.3955
1342.59	80.7055
1342.86	78.5906
1343.13	83.7999
1343.4	85.8794
1343.67	82.7346
1343.95	75.4102
1344.22	81.6839
1344.49	81.6847
1344.76	83.7758
1345.03	83.7674
1345.3	76.4338
1345.58	75.3705
1345.85	83.7063
1346.12	81.5949
1346.39	81.5665
1346.66	81.5252
1346.93	79.4113
1347.2	75.2137
1347.47	84.576
1347.75	85.5945
1348.02	88.7055
1348.29	74.1007
1348.56	81.3893
1348.83	79.2983
1349.1	88.6632
1349.37	79.2696
1349.65	84.4615
1349.92	81.321
1350.19	79.2231
1350.46	80.2494
1350.73	83.3566
1351	80.2137
1351.27	94.7576
1351.54	87.4601
1351.81	79.1176
1352.09	72.8717
1352.36	73.9096
1352.63	84.317
1352.9	80.1738
1353.17	82.2786
1353.44	88.535
1353.71	86.5263
1353.98	79.3086
1354.25	84.441
1354.53	80.1538
1354.8	89.4212
1355.07	87.3524
1355.34	90.4763
1355.61	87.3277
1355.88	94.5811
1356.15	83.1842
1356.42	79.0341
1356.69	83.1715
1356.96	83.1626
1357.24	89.3863
1357.51	85.2228
1357.78	78.9808
1358.05	78.9678
1358.32	94.5239
1358.59	82.0519
1358.86	90.3387
1359.13	92.3946
1359.4	80.9661
1359.67	95.4734
1359.94	85.0906
1360.22	96.4719
1360.49	93.3334
1360.76	85.0176
1361.03	83.9649
1361.3	83.9575
1361.57	91.2064
1361.84	86.0232
1362.11	94.3035
1362.38	94.2916
1362.65	92.2098
1362.92	91.1646
1363.19	81.8424
1363.46	89.0949
1363.73	83.9314
1364	93.263
1364.28	101.561
1364.55	104.667
1364.82	92.2295
1365.09	106.719
1365.36	101.521
1365.63	111.851
1365.9	112.859
1366.17	104.554
1366.44	102.461
1366.71	98.2988
1366.98	99.3037
1367.25	102.37
1367.52	99.2525
1367.79	96.1418
1368.06	95.1202
1368.33	107.531
1368.6	96.1657
1368.87	107.542
1369.15	109.616
1369.41	131.337
1369.68	187.181
1369.95	232.649
1370.23	237.791
1370.5	191.249
1370.77	143.663
1371.04	128.145
1371.31	107.46
1371.58	98.1344
1371.85	110.49
1372.12	102.19
1372.39	101.118
1372.66	108.301
1372.93	110.334
1373.2	107.222
1373.47	109.269
1373.74	106.163
1374.01	106.151
1374.28	104.081
1374.55	105.103
1374.82	108.186
1375.09	107.147
1375.36	106.102
1375.63	119.497
1375.9	112.3
1376.17	118.478
1376.44	121.574
1376.71	112.273
1376.98	112.245
1377.25	117.354
1377.52	121.421
1377.79	119.377
1378.06	126.612
1378.33	118.424
1378.6	125.694
1378.87	123.7
1379.14	129.907
1379.41	137.118
1379.68	132.976
1379.95	141.202
1380.22	143.233
1380.49	151.412
1380.76	152.319
1381.03	151.219
1381.3	148.077
1381.57	146.044
1381.84	156.288
1382.11	161.354
1382.38	166.41
1382.65	171.474
1382.92	168.332
1383.19	179.554
1383.46	197.968
1383.73	204.063
1384	216.331
1384.27	235.779
1384.54	246.039
1384.81	252.211
1385.08	301.482
1385.34	341.571
1385.61	396.093
1385.88	476.263
1386.15	604.706
1386.42	756.76
1386.69	1071.19
1386.96	1596.17
1387.23	2425.05
1387.5	3979.05
1387.77	5958.65
1388.04	7362.88
1388.31	7191.02
1388.58	5588.87
1388.85	3560.18
1389.12	2102.36
1389.39	1244.33
1389.66	799.83
1389.93	571.951
1390.2	412.642
1390.46	357.955
1390.73	295.275
1391	246.047
1391.27	225.448
1391.54	214.154
1391.81	200.812
1392.08	184.374
1392.35	162.816
1392.62	169.947
1392.89	161.727
1393.16	147.372
1393.43	142.236
1393.7	149.386
1393.97	132.997
1394.23	144.242
1394.5	131.952
1394.77	131.943
1395.04	126.822
1395.31	122.742
1395.58	122.762
1395.85	128.917
1396.12	123.805
1396.39	117.659
1396.66	122.766
1396.93	114.564
1397.2	114.548
1397.46	109.411
1397.73	106.321
1398	115.516
1398.27	105.286
1398.54	106.315
1398.81	114.512
1399.08	114.519
1399.35	102.247
1399.62	105.334
1399.89	107.392
1400.16	108.425
1400.42	107.4
1400.69	115.604
1400.96	101.297
1401.23	110.525
1401.5	112.569
1401.77	116.678
1402.04	105.411
1402.31	107.496
1402.58	110.631
1402.84	113.775
1403.11	111.773
1403.38	107.702
1403.65	112.851
1403.92	119.012
1404.19	107.696
1404.46	111.739
1404.73	113.807
1404.99	111.744
1405.26	115.834
1405.53	111.711
1405.8	120.918
1406.07	123.973
1406.34	132.153
1406.61	139.314
1406.87	137.253
1407.14	164.933
1407.41	158.795
1407.68	182.386
1407.95	207.002
1408.22	229.571
1408.49	266.496
1408.76	319.833
1409.02	398.819
1409.29	431.675
1409.56	459.404
1409.83	443.029
1410.1	399.97
1410.37	334.319
1410.63	265.538
1410.9	217.274
1411.17	173.13
1411.44	153.618
1411.71	139.247
1411.98	124.885
1412.25	112.587
1412.51	114.652
1412.78	106.485
1413.05	111.679
1413.32	105.652
1413.59	100.579
1413.86	103.581
1414.12	93.1914
1414.39	91.1608
1414.66	98.4048
1414.93	93.3169
1415.2	87.1507
1415.47	91.2601
1415.73	87.1534
1416	89.2091
1416.27	78.9481
1416.54	86.1432
1416.81	83.0703
1417.07	78.9702
1417.34	82.0609
1417.61	81.0429
1417.88	86.1887
1418.15	85.1657
1418.42	76.9464
1418.68	84.1426
1418.95	86.2016
1419.22	88.2578
1419.49	81.0652
1419.76	80.0285
1420.02	73.8486
1420.29	79.9968
1420.56	70.7381
1420.83	86.1259
1421.1	80.9737
1421.36	81.9848
1421.63	84.0298
1421.9	83.008
1422.17	79.9496
1422.44	78.9491
1422.7	78.9754
1422.97	77.9897
1423.24	80.114
1423.51	80.1845
1423.77	77.9398
1424.04	81.877
1424.31	83.9498
1424.58	80.795
1424.85	81.8198
1425.11	83.8926
1425.38	82.9249
1425.65	84.9866
1425.92	76.7701
1426.19	85.0034
1426.45	83.971
1426.72	81.9045
1426.99	76.7561
1427.26	71.6089
1427.52	79.7862
1427.79	74.6311
1428.06	72.5581
1428.33	77.6656
1428.59	69.4693
1428.86	69.4699
1429.13	69.4735
1429.4	64.3587
1429.67	70.5108
1429.93	67.4484
1430.2	64.3888
1430.47	68.505
1430.74	72.6194
1431	70.5905
1431.27	79.8537
1431.54	64.488
1431.81	65.5251
1432.07	68.6041
1432.34	68.5911
1432.61	67.5485
1432.87	68.5637
1433.14	69.5679
1433.41	61.3403
1433.68	70.5361
1433.95	65.3862
1434.21	63.3216
1434.48	68.4347
1434.75	66.4173
1435.01	69.5049
1435.28	67.4579
1435.55	64.3838
1435.82	70.5302
1436.08	70.5265
1436.35	69.497
1436.62	59.2463
1436.89	66.4116
1437.15	65.3803
1437.42	70.4957
1437.69	58.2021
1437.95	59.2194
1438.22	66.3847
1438.49	66.3876
1438.76	65.3731
1439.02	68.4521
1439.29	67.4294
1439.56	64.359
1439.82	68.4674
1440.09	66.4328
1440.36	63.3754
1440.63	60.3069
1440.89	65.4373
1441.16	62.3616
1441.43	64.4157
1441.69	64.4104
1441.96	61.3233
1442.23	58.242
1442.49	63.3806
1442.76	62.3563
1443.03	58.2658
1443.3	61.3345
1443.56	62.3489
1443.83	62.3395
1444.1	61.3077
1444.36	62.33
1444.63	63.3586
1444.9	58.2492
1445.16	61.3401
1445.43	62.3855
1445.7	62.3798
1445.97	64.4252
1446.23	62.3677
1446.5	62.3619
1446.77	60.3055
1447.03	57.2236
1447.3	62.3461
1447.57	59.2631
1447.83	60.2804
1448.1	57.1983
1448.37	59.2478
1448.63	60.283
1448.9	62.3474
1449.17	60.2995
1449.43	58.2468
1449.7	56.1902
1449.97	62.3351
1450.23	63.3497
1450.5	55.1378
1450.77	63.3329
1451.03	59.2276
1451.3	62.297
1451.57	55.1175
1451.83	58.1856
1452.1	56.1301
1452.37	51.0025
1452.63	60.2204
1452.9	56.1226
1453.17	58.174
1453.43	58.1802
1453.7	56.1357
1453.97	53.0611
1454.23	62.2797
1454.5	61.2511
1454.77	58.1764
1455.03	54.0771
1455.3	53.0503
1455.56	57.1448
1455.83	53.0468
1456.1	49.981
1456.36	54.085
1456.63	60.2341
1456.9	53.0544
1457.16	55.0942
1457.43	50.9866
1457.7	56.1045
1457.96	54.0515
1458.23	57.1219
1458.49	57.1217
1458.76	47.9029
1459.03	52.0029
1459.29	60.2011
1459.56	55.0798
1459.82	60.2035
1460.09	54.0533
1460.36	56.0982
1460.62	54.0448
1460.89	62.2345
1461.16	56.0817
1461.42	56.0738
1461.69	59.138
1461.95	51.9619
1462.22	50.9289
1462.49	58.0835
1462.75	48.8614
1463.02	54.9886
1463.28	59.0668
1463.55	55.9842
1463.82	53.9269
1464.08	52.902
1464.35	51.8954
1464.61	54.9884
1464.88	49.8899
1465.15	55.0329
1465.41	51.9202
1465.68	50.8033
1465.94	53.8227
1466.21	58.9192
1466.48	54.8537
1466.74	51.7857
1467.01	58.9041
1467.27	53.7949
1467.54	56.8603
1467.8	52.7753
1468.07	59.9116
1468.34	56.8482
1468.6	55.8265
1468.87	45.6243
1469.13	55.8208
1469.4	53.7748
1469.67	55.8071
1469.93	62.9328
1470.2	54.7626
1470.46	52.7132
1470.73	49.6483
1470.99	48.6229
1471.26	52.6939
1471.53	60.8355
1471.79	55.7304
1472.06	52.667
1472.32	54.6992
1472.59	56.7329
1472.85	48.5849
1473.12	52.6556
1473.39	57.7416
1473.65	49.5886
1473.92	56.7054
1474.18	52.627
1474.45	54.6578
1474.71	57.7099
1474.98	48.5548
1475.24	54.6643
1475.51	46.5217
1475.78	51.6086
1476.04	52.6209
1476.31	54.6483
1476.57	53.6248
1476.84	48.5324
1477.1	54.6274
1477.37	46.4811
1477.63	53.5955
1477.9	50.542
1478.16	53.5908
1478.43	54.6008
1478.69	57.6393
1478.96	52.5477
1479.22	48.4739
1479.49	52.5296
1479.76	53.5349
1480.02	57.5857
1480.29	53.5106
1480.55	49.4298
1480.82	55.5043
1481.08	49.4043
1481.35	54.4722
1481.61	51.4188
1481.88	51.4228
1482.14	50.4157
1482.41	47.3796
1482.67	52.4643
1482.94	53.4872
1483.2	50.4405
1483.47	52.4768
1483.73	52.4796
1484	56.541
1484.26	53.4921
1484.53	52.4546
1484.79	52.4246
1485.06	49.3273
1485.32	48.2475
1485.59	54.2927
1485.85	52.2282
1486.12	54.3755
1486.38	51.35
1486.65	47.3138
1486.91	51.3135
1487.18	51.3392
1487.44	49.3196
1487.71	53.3566
1487.97	50.3049
1488.24	51.3099
1488.5	54.3385
1488.77	50.2764
1489.03	50.2634
1489.3	52.2771
1489.56	55.306
1489.83	52.2654
1490.09	51.2494
1490.36	49.225
1490.62	50.2352
1490.89	49.2168
1491.15	53.2515
1491.42	49.1957
1491.68	53.2345
1491.95	51.2093
1492.21	54.2414
1492.48	54.2431
1492.74	52.2186
1493	50.1932
1493.27	55.2454
1493.53	50.1899
1493.8	49.1748
1494.06	50.183
1494.33	45.1287
1494.59	49.1747
1494.86	58.2771
1495.12	48.1645
1495.39	49.1668
1495.65	46.12
1495.92	52.1634
1496.18	54.1673
1496.45	51.1275
1496.71	51.1198
1496.97	50.1033
1497.24	50.0956
1497.5	55.1409
1497.77	50.0933
1498.03	53.1173
1498.3	50.0877
1498.56	48.069
1498.82	48.0694
1499.09	52.1073
1499.35	48.0717
1499.62	48.0741
1499.88	54.1344
1500.15	49.0906
1500.41	57.1684
1500.68	51.1097
1500.94	50.0977
1501.2	55.143
1501.47	56.1458
1501.73	49.0695
1502	54.1115
1502.26	48.0544
1502.52	52.0882
1502.79	50.0644
1503.05	55.0969
1503.32	54.0766
1503.58	51.0441
1503.85	54.059
1504.11	49.0166
1504.37	49.0206
1504.64	49.0221
1504.9	56.0809
1505.17	52.044
1505.43	51.0295
1505.7	47.9964
1505.96	49.9978
1506.22	57.0318
1506.49	51.9899
1506.75	51.9875
1507.02	47.9592
1507.28	43.935
1507.54	49.9819
1507.81	48.9758
1508.07	45.9515
1508.34	48.9705
1508.6	55.0125
1508.86	47.9597
1509.13	46.9531
1509.39	46.9531
1509.66	50.9822
1509.92	50.9813
1510.18	49.9785
1510.45	51.9967
1510.71	57.024
1510.98	52.9825
1511.24	50.955
1511.5	48.9261
1511.77	47.8989
1512.03	49.8848
1512.29	50.8633
1512.56	50.8373
1512.82	46.7967
1513.08	49.7966
1513.35	51.7925
1513.61	53.7895
1513.88	50.7729
1514.14	50.7842
1514.4	50.8032
1514.67	50.8075
1514.93	49.7965
1515.2	49.7843
1515.46	51.7781
1515.72	45.7419
1515.99	45.7272
1516.25	53.7374
1516.51	56.7339
1516.78	56.7276
1517.04	48.7006
1517.3	50.7019
1517.57	52.705
1517.83	46.6894
1518.09	49.7002
1518.36	49.7086
1518.62	53.7224
1518.88	56.7346
1519.15	47.7095
1519.41	48.7162
1519.67	51.7291
1519.94	47.7177
1520.2	56.7455
1520.47	48.714
1520.73	45.7004
1520.99	54.731
1521.26	53.7325
1521.52	55.7434
1521.78	53.7379
1522.05	48.7181
1522.31	51.7228
1522.57	47.7036
1522.84	47.697
1523.1	49.6972
1523.36	47.6826
1523.62	47.6674
1523.89	50.6539
1524.15	50.6396
1524.41	53.633
1524.68	52.6213
1524.94	50.6096
1525.2	53.619
1525.47	51.6179
1525.73	50.6176
1525.99	52.6277
1526.26	47.6276
1526.52	50.6461
1526.78	53.6628
1527.05	52.664
1527.31	52.6621
1527.57	48.6448
1527.84	54.654
1528.1	50.6402
1528.36	45.6253
1528.63	48.6247
1528.89	50.6223
1529.15	51.6186
1529.41	48.6103
1529.68	48.6087
1529.94	49.6063
1530.2	45.5919
1530.47	46.5905
1530.73	49.5985
1530.99	48.6063
