#Acq. time (s)=	30
#Accumulations=	2
#Range (cm-¹)=	1200...2365
#Windows=	3
#Auto scanning=	Off
#Autofocus=	Off
#Macrospot=	Off
#AutoExposure=	Off
#Spike filter=	Multiple accum.
#Delay time (s)=	2
#Binning=	1
#Readout mode=	Signal
#DeNoise=	Off
#ICS correction=	On
#Dark correction=	Off
#Inst. Process=	Off
#Detector Gain=	Best Dynamic
#Detector ADC=	50 kHz HS
#Detector temperature (°C)=	-60.09
#Instrument=	LabRAM HR Evol
#Detector=	SIN-EM FIVIS
#Objective=	x100_VIS_LWD
#Grating=	1800 (450-850nm)
#ND Filter=	100%
#Laser=	532nm_Edge
#Hole=	100.021
#Temperature=	0
#Range=	Visible
#StageXY=	75x50mm Scan+
#StageZ=	Z motor
#X (µm)=	0
#Y (µm)=	0
#Z (µm)=	-16.5
#Full time(mm:ss)=	3:18
#Project=	21_11_26
#Sample=	BU02Aw
#Site=	
#Title=	BU02aW-A-FF1-FI04-S_1800 (450-850nm)_532nm_Edge_100%_x100_VIS_LWD_H100um_30sX2
#Remark=	
#Date=	26.11.2021 11:05
#Acquired=	26.11.2021 11:05:18
1202.72	67.2137
1203	70.5414
1203.28	69.4872
1203.56	60.8318
1203.84	65.0884
1204.11	66.132
1204.39	68.2557
1204.67	69.3335
1204.95	70.4164
1205.23	70.4024
1205.5	65.0026
1205.78	64.9755
1206.06	67.0919
1206.34	71.3515
1206.61	70.2451
1206.89	68.0676
1207.17	65.892
1207.45	65.866
1207.73	67.9905
1208	71.1855
1208.28	59.399
1208.56	65.8076
1208.84	66.8573
1209.11	62.5603
1209.39	65.7516
1209.67	62.5357
1209.95	58.2563
1210.23	71.079
1210.5	57.1695
1210.78	69.9658
1211.06	61.3939
1211.34	67.7793
1211.61	66.686
1211.89	62.3982
1212.17	67.705
1212.45	63.4144
1212.72	64.4625
1213	59.1161
1213.28	64.4236
1213.56	62.2805
1213.83	67.5961
1214.11	60.1294
1214.39	67.5841
1214.67	65.4568
1214.94	64.3926
1215.22	60.133
1215.5	64.3887
1215.78	62.2559
1216.05	64.3793
1216.33	70.7476
1216.61	64.3391
1216.89	60.0574
1217.16	66.4107
1217.44	60.0142
1217.72	61.0588
1218	61.0407
1218.27	61.0261
1218.55	69.5042
1218.83	63.1214
1219.1	59.9301
1219.38	65.2309
1219.66	66.2853
1219.94	66.2766
1220.21	66.2645
1220.49	70.5045
1220.77	63.0798
1221.04	70.4999
1221.32	64.1295
1221.6	61.997
1221.88	64.1057
1222.15	64.0866
1222.43	64.0612
1222.71	66.1493
1222.98	69.2908
1223.26	63.9681
1223.54	68.1682
1223.81	63.9116
1224.09	61.7756
1224.37	58.5848
1224.65	64.9056
1224.92	70.1714
1225.2	66.9948
1225.48	60.6589
1225.76	68.0559
1226.03	57.5045
1226.31	65.9591
1226.59	67.0108
1226.86	67.0055
1227.14	63.8256
1227.42	70.1468
1227.69	62.7259
1227.97	66.8807
1228.25	59.4672
1228.52	60.4854
1228.8	65.6857
1229.08	60.381
1229.35	68.7817
1229.63	56.3112
1229.91	60.6529
1230.18	64.8136
1230.46	64.7519
1230.74	61.5688
1231.01	71.0551
1231.29	59.4329
1231.57	66.6703
1231.84	63.5295
1232.12	59.3245
1232.4	70.8807
1232.67	61.4158
1232.95	59.3126
1233.23	67.7133
1233.5	65.6054
1233.78	65.6032
1234.06	67.7074
1234.33	64.5612
1234.61	65.618
1234.89	63.5254
1235.16	66.6886
1235.44	66.6935
1235.71	65.648
1235.99	57.2449
1236.27	58.3005
1236.54	65.659
1236.82	61.4452
1237.1	63.5373
1237.37	62.4721
1237.65	68.7538
1237.93	62.4277
1238.2	67.6539
1238.48	66.5796
1238.76	63.4081
1239.03	64.4389
1239.31	61.2816
1239.58	61.2727
1239.86	65.4591
1240.14	57.0685
1240.41	62.3071
1240.69	57.0655
1240.97	67.5488
1241.24	64.407
1241.52	69.6505
1241.79	67.5474
1242.07	68.5827
1242.35	67.5265
1242.62	71.719
1242.9	60.195
1243.18	62.2994
1243.45	65.4521
1243.73	70.6921
1244	56.0164
1244.28	68.5998
1244.56	64.4052
1244.83	68.5936
1245.11	63.3456
1245.39	70.6669
1245.66	67.5057
1245.94	70.6238
1246.21	70.5998
1246.49	67.449
1246.76	64.303
1247.04	68.4898
1247.32	73.7215
1247.59	67.4351
1247.87	71.6197
1248.14	75.7975
1248.42	78.9072
1248.7	68.4324
1248.97	71.5662
1249.25	69.4783
1249.52	68.437
1249.8	68.432
1250.08	75.7505
1250.35	67.3838
1250.63	64.2322
1250.9	63.1697
1251.18	68.381
1251.45	65.2322
1251.73	68.3546
1252.01	70.4316
1252.28	69.3738
1252.56	70.4048
1252.83	69.3472
1253.11	69.3321
1253.39	68.2748
1253.66	77.6592
1253.94	69.311
1254.21	68.278
1254.49	72.466
1254.76	67.2607
1255.04	70.3986
1255.31	77.7075
1255.59	68.3147
1255.87	78.7569
1256.14	77.7084
1256.42	70.4017
1256.69	70.4068
1256.97	73.5502
1257.24	72.5088
1257.52	73.549
1257.79	71.4494
1258.07	78.7524
1258.35	77.7017
1258.62	81.8711
1258.9	91.2572
1259.17	91.2352
1259.45	93.3199
1259.72	80.8045
1260	86.0358
1260.27	81.8933
1260.55	79.7835
1260.82	86.0271
1261.1	82.8651
1261.37	95.3634
1261.65	95.3476
1261.92	98.4902
1262.2	101.71
1262.48	100.797
1262.75	109.229
1263.02	123.673
1263.3	132.913
1263.58	149.535
1263.85	153.856
1264.13	165.464
1264.4	188.621
1264.68	191.853
1264.95	183.369
1265.23	170.782
1265.5	144.652
1265.78	134.189
1266.05	116.401
1266.33	104.907
1266.6	94.4644
1266.88	97.6119
1267.15	105.992
1267.43	88.2423
1267.7	87.2197
1267.98	86.1987
1268.25	84.1337
1268.53	82.0768
1268.8	94.6738
1269.08	93.6444
1269.35	84.2302
1269.63	82.1448
1269.9	83.1872
1270.18	86.311
1270.45	75.8124
1270.73	86.2654
1271	87.2909
1271.28	89.3685
1271.55	92.5015
1271.83	88.3035
1272.1	87.2633
1272.38	92.5164
1272.65	88.3544
1272.93	87.3405
1273.2	85.2676
1273.47	82.1459
1273.75	92.6493
1274.03	81.1404
1274.3	82.2102
1274.57	85.3701
1274.85	85.3737
1275.12	88.5165
1275.4	86.4187
1275.67	85.3788
1275.95	84.3432
1276.22	86.4564
1276.5	89.6258
1276.77	88.5919
1277.05	88.6087
1277.32	93.8717
1277.6	97.0457
1277.87	91.8155
1278.14	94.9899
1278.42	91.8551
1278.69	97.1287
1278.97	97.1561
1279.24	101.379
1279.52	109.811
1279.79	101.389
1280.07	107.692
1280.34	121.351
1280.61	120.295
1280.89	127.666
1281.16	133.989
1281.44	152.961
1281.71	175.111
1281.99	208.818
1282.26	249.865
1282.53	317.261
1282.81	403.629
1283.08	528.826
1283.36	715.846
1283.63	975.922
1283.91	1293.97
1284.18	1676.43
1284.45	1999.04
1284.73	2114.85
1285	1936.09
1285.28	1429.23
1285.55	995.668
1285.83	653.154
1286.1	439.436
1286.37	322.638
1286.65	226.805
1286.92	185.7
1287.2	174.115
1287.47	144.626
1287.75	127.762
1288.02	123.529
1288.29	117.201
1288.57	117.2
1288.84	109.836
1289.12	97.2139
1289.39	99.3335
1289.66	98.2981
1289.94	94.1039
1290.21	94.1233
1290.49	96.2461
1290.76	96.2454
1291.03	84.6484
1291.31	84.6433
1291.58	96.2272
1291.86	87.8002
1292.13	86.7434
1292.4	86.7439
1292.68	77.2699
1292.95	77.2651
1293.22	81.4712
1293.5	73.0497
1293.77	80.4478
1294.05	81.5347
1294.32	82.6235
1294.59	83.6873
1294.87	85.7964
1295.14	84.7356
1295.42	79.4773
1295.69	84.7861
1295.96	77.4424
1296.24	80.6668
1296.51	75.4156
1296.79	78.5942
1297.06	66.9688
1297.33	74.3596
1297.61	74.3465
1297.88	75.3876
1298.15	78.539
1298.43	79.574
1298.7	80.6393
1298.97	79.5766
1299.25	69.0044
1299.52	75.3291
1299.79	73.2056
1300.07	77.4267
1300.34	73.2171
1300.62	73.2243
1300.89	75.3379
1301.16	77.4458
1301.44	72.1636
1301.71	77.4462
1301.98	64.7866
1302.25	76.4147
1302.53	75.3647
1302.8	71.1413
1303.08	73.2527
1303.35	69.0226
1303.62	73.2394
1303.9	70.0581
1304.17	71.1112
1304.44	75.3363
1304.72	77.4481
1304.99	64.7756
1305.26	72.1581
1305.54	71.0895
1305.81	72.1285
1306.08	73.1672
1306.35	71.0393
1306.63	75.2438
1306.9	66.8
1307.18	69.9633
1307.45	71.0239
1307.72	73.1352
1308	72.0792
1308.27	76.2973
1308.54	65.7533
1308.81	64.6944
1309.09	73.1358
1309.36	71.0372
1309.63	65.7715
1309.91	67.8912
1310.18	66.842
1310.45	70.0059
1310.73	70.0012
1311	67.8904
1311.27	70.0037
1311.55	68.9518
1311.82	74.2318
1312.09	66.849
1312.37	62.6374
1312.64	68.9814
1312.91	70.0418
1313.18	70.0385
1313.46	65.8043
1313.73	65.8017
1314	77.407
1314.28	70.0125
1314.55	70.0121
1314.82	74.2383
1315.09	68.9669
1315.37	73.1986
1315.64	73.207
1315.91	64.7676
1316.18	62.6633
1316.46	61.6042
1316.73	62.6561
1317	61.597
1317.28	66.8753
1317.55	67.931
1317.82	74.2777
1318.09	62.6652
1318.37	66.8945
1318.64	66.8969
1318.91	66.8981
1319.18	69.011
1319.46	71.1217
1319.73	67.9493
1320	70.0593
1320.28	63.7251
1320.55	63.7256
1320.82	69.0038
1321.09	62.656
1321.37	63.6977
1321.64	64.7351
1321.91	75.2683
1322.18	69.9784
1322.46	68.9035
1322.73	66.7843
1323	69.9386
1323.27	64.6556
1323.55	65.6971
1323.82	67.8131
1324.09	66.7614
1324.36	66.7622
1324.64	67.8143
1324.91	63.5973
1325.18	69.9216
1325.45	59.3809
1325.73	66.7449
1326	63.5533
1326.27	65.6228
1326.54	64.5235
1326.81	67.6606
1327.09	65.5511
1327.36	64.5203
1327.63	66.6686
1327.9	65.6384
1328.18	71.984
1328.45	74.12
1328.72	62.5476
1328.99	66.787
1329.27	60.4626
1329.54	66.7844
1329.81	67.8463
1330.08	65.733
1330.35	67.8372
1330.63	69.9377
1330.9	60.4331
1331.17	66.7446
1331.44	74.1027
1331.71	68.8055
1331.99	65.6155
1332.26	61.3813
1332.53	70.8367
1332.8	68.7105
1333.07	60.2716
1333.35	69.7132
1333.62	60.2298
1333.89	61.262
1334.16	67.5474
1334.43	71.7293
1334.71	68.5602
1334.98	65.394
1335.25	69.578
1335.52	72.7121
1335.79	64.3052
1336.07	63.2447
1336.34	65.3313
1336.61	70.5642
1336.88	68.4574
1337.15	67.4008
1337.43	60.0564
1337.7	71.5807
1337.97	68.4284
1338.24	70.5067
1338.51	67.3474
1338.78	68.3847
1339.06	61.0424
1339.33	71.5066
1339.6	66.2687
1339.87	64.1766
1340.14	64.1798
1340.42	67.3224
1340.69	66.2774
1340.96	69.4211
1341.23	70.4666
1341.5	67.3215
1341.77	70.4578
1342.04	65.2144
1342.32	71.4849
1342.59	64.1426
1342.86	66.218
1343.13	65.1543
1343.4	66.1908
1343.67	65.1396
1343.95	72.4579
1344.22	71.4111
1344.49	67.2287
1344.76	70.3659
1345.03	70.3591
1345.3	67.2105
1345.58	71.3765
1345.85	68.2185
1346.12	67.1562
1346.39	66.0887
1346.66	66.0555
1346.93	64.9904
1347.2	68.1004
1347.47	71.2077
1347.75	68.0596
1348.02	65.9618
1348.29	60.7414
1348.56	64.9047
1348.83	59.6887
1349.1	68.0151
1349.37	64.8766
1349.65	63.822
1349.92	72.1413
1350.19	60.6743
1350.46	67.9506
1350.73	72.1013
1351	65.8396
1351.27	68.9437
1351.54	66.8517
1351.81	65.7942
1352.09	68.9084
1352.36	60.5882
1352.63	66.8346
1352.9	68.929
1353.17	71.0306
1353.44	73.1229
1353.71	66.9352
1353.98	64.9121
1354.25	67.9754
1354.53	69.9533
1354.8	70.9203
1355.07	71.9668
1355.34	63.6594
1355.61	68.8306
1355.88	68.8177
1356.15	59.4903
1356.42	70.9238
1356.69	72.9858
1356.96	63.63
1357.24	66.74
1357.51	64.656
1357.78	76.0693
1358.05	69.8279
1358.32	72.9296
1358.59	70.8403
1358.86	71.8657
1359.13	72.8882
1359.4	71.8365
1359.67	70.7887
1359.94	72.8533
1360.22	69.724
1360.49	68.6666
1360.76	73.8277
1361.03	76.9213
1361.3	76.9148
1361.57	67.5907
1361.84	74.8383
1362.11	68.6192
1362.38	70.6819
1362.65	76.8872
1362.92	70.6668
1363.19	73.7701
1363.46	71.7035
1363.73	71.7154
1364	82.0816
1364.28	77.9479
1364.55	81.0544
1364.82	78.977
1365.09	83.111
1365.36	88.2734
1365.63	82.0418
1365.9	87.1972
1366.17	84.0727
1366.44	79.9152
1366.71	82.9991
1366.98	81.9408
1367.25	77.7774
1367.52	74.6643
1367.79	75.6901
1368.06	80.8675
1368.33	73.6379
1368.6	80.878
1368.87	82.9502
1369.15	96.3947
1369.41	107.776
1369.68	133.633
1369.95	165.666
1370.23	159.445
1370.5	132.552
1370.77	98.4156
1371.04	90.1365
1371.31	91.1527
1371.58	96.2909
1371.85	93.1613
1372.12	90.0281
1372.39	87.9302
1372.66	90.9931
1372.93	85.8137
1373.2	86.8296
1373.47	86.8177
1373.74	86.8066
1374.01	90.9191
1374.28	91.9415
1374.55	95.0256
1374.82	98.1098
1375.09	92.951
1375.36	94.999
1375.63	89.8521
1375.9	101.195
1376.17	89.8605
1376.44	108.41
1376.71	105.292
1376.98	100.117
1377.25	105.231
1377.52	105.187
1377.79	104.171
1378.06	105.226
1378.33	110.416
1378.6	113.562
1378.87	118.778
1379.14	120.86
1379.41	124.979
1379.68	129.086
1379.95	130.098
1380.22	134.192
1380.49	131.044
1380.76	127.851
1381.03	136.022
1381.3	142.141
1381.57	142.165
1381.84	150.354
1382.11	142.062
1382.38	141.991
1382.65	154.254
1382.92	157.277
1383.19	159.269
1383.46	166.405
1383.73	168.407
1384	183.758
1384.27	178.606
1384.54	189.889
1384.81	201.184
1385.08	222.756
1385.34	243.334
1385.61	263.953
1385.88	330.744
1386.15	400.633
1386.42	512.612
1386.69	689.371
1386.96	1014.02
1387.23	1531.68
1387.5	2421.32
1387.77	3611.07
1388.04	4511.02
1388.31	4089.38
1388.58	2886.75
1388.85	1743.42
1389.12	1029.35
1389.39	639.846
1389.66	424.273
1389.93	328.82
1390.2	260.957
1390.46	210.491
1390.73	188.881
1391	176.57
1391.27	161.124
1391.54	144.712
1391.81	126.253
1392.08	127.248
1392.35	128.24
1392.62	115.922
1392.89	117.95
1393.16	105.649
1393.43	103.589
1393.7	112.79
1393.97	106.639
1394.23	106.63
1394.5	94.3432
1394.77	93.3138
1395.04	95.3563
1395.31	91.273
1395.58	93.335
1395.85	96.4167
1396.12	86.1846
1396.39	99.4886
1396.66	89.2448
1396.93	82.07
1397.2	80.0127
1397.46	86.136
1397.73	83.0511
1398	85.0886
1398.27	89.1787
1398.54	84.0701
1398.81	88.1718
1399.08	81.0162
1399.35	85.1127
1399.62	85.1269
1399.89	81.0423
1400.16	86.1674
1400.42	84.1194
1400.69	81.06
1400.96	93.3672
1401.23	83.1376
1401.5	79.0382
1401.77	84.1682
1402.04	82.1191
1402.31	82.1466
1402.58	77.0675
1402.84	89.4227
1403.11	79.2006
1403.38	81.2785
1403.65	86.424
1403.92	81.2914
1404.19	80.2481
1404.46	78.1511
1404.73	89.4487
1404.99	84.311
1405.26	88.4041
1405.53	80.1833
1405.8	86.3209
1406.07	89.3813
1406.34	87.3167
1406.61	102.682
1406.87	103.699
1407.14	113.954
1407.41	116.012
1407.68	117.047
1407.95	131.407
1408.22	147.819
1408.49	189.867
1408.76	203.208
1409.02	222.708
1409.29	259.649
1409.56	290.441
1409.83	267.898
1410.1	246.372
1410.37	192.004
1410.63	162.224
1410.9	127.318
1411.17	114.978
1411.44	104.703
1411.71	96.4881
1411.98	88.2794
1412.25	90.3252
1412.51	83.1655
1412.78	73.965
1413.05	77.0878
1413.32	79.2332
1413.59	71.0622
1413.86	76.1407
1414.12	76.0405
1414.39	75.0317
1414.66	64.8197
1414.93	81.2767
1415.2	65.8719
1415.47	64.8475
1415.73	67.9277
1416	67.9296
1416.27	62.8011
1416.54	68.9681
1416.81	62.8128
1417.07	65.9005
1417.34	58.7176
1417.61	66.9434
1417.88	66.9505
1418.15	63.8715
1418.42	63.8727
1418.68	63.8753
1418.95	62.8505
1419.22	60.7958
1419.49	63.8801
1419.76	62.8455
1420.02	61.8063
1420.29	58.7121
1420.56	60.7552
1420.83	63.8232
1421.1	61.756
1421.36	65.8503
1421.63	61.7389
1421.9	60.716
1422.17	61.7587
1422.44	61.7794
1422.7	62.8275
1422.97	61.8332
1423.24	60.8572
1423.51	60.9108
1423.77	61.7943
1424.04	66.7912
1424.31	69.8856
1424.58	60.5977
1424.85	65.7207
1425.11	60.6153
1425.38	58.6061
1425.65	63.7419
1425.92	66.8095
1426.19	67.8584
1426.45	62.7242
1426.72	64.7643
1426.99	65.773
1427.26	59.6041
1427.52	61.6363
1427.79	62.6355
1428.06	57.4944
1428.33	56.4611
1428.59	63.6244
1428.86	62.6014
1429.13	59.5331
1429.4	57.4899
1429.67	60.5689
1429.93	59.5539
1430.2	57.5174
1430.47	64.7065
1430.74	60.62
1431	58.5876
1431.27	57.5874
1431.54	60.6857
1431.81	53.5115
1432.07	57.617
1432.34	54.5278
1432.61	54.5148
1432.87	58.6097
1433.14	56.5408
1433.41	51.3938
1433.68	52.3966
1433.95	52.3758
1434.21	58.5072
1434.48	50.3095
1434.75	54.4305
1435.01	53.4171
1435.28	51.3698
1435.55	56.4936
1435.82	55.4675
1436.08	52.3908
1436.35	52.3874
1436.62	50.3346
1436.89	58.5254
1437.15	50.3247
1437.42	56.4659
1437.69	57.4885
1437.95	51.3371
1438.22	53.3826
1438.49	57.4818
1438.76	47.2472
1439.02	55.4469
1439.29	55.4485
1439.56	55.4513
1439.82	46.2376
1440.09	57.5222
1440.36	50.3617
1440.63	54.4693
1440.89	56.5234
1441.16	56.5242
1441.43	49.3487
1441.69	48.3193
1441.96	53.4375
1442.23	52.4075
1442.49	53.4436
1442.76	53.4448
1443.03	53.4554
1443.3	52.423
1443.56	53.4392
1443.83	47.2801
1444.1	54.4511
1444.36	55.474
1444.63	51.3767
1444.9	50.3658
1445.16	52.4294
1445.43	48.3419
1445.7	52.4415
1445.97	53.4623
1446.23	57.5609
1446.5	53.453
1446.77	56.5258
1447.03	52.419
1447.3	54.4657
1447.57	53.4347
1447.83	51.3772
1448.1	52.3971
1448.37	43.1699
1448.63	47.2787
1448.9	52.4172
1449.17	52.4202
1449.43	49.3424
1449.7	49.338
1449.97	51.3824
1450.23	53.4244
1450.5	51.3652
1450.77	50.3356
1451.03	49.3065
1451.3	50.3273
1451.57	48.2732
1451.83	51.3423
1452.1	53.3863
1452.37	49.2838
1452.63	44.159
1452.9	49.2821
1453.17	50.3088
1453.43	52.3638
1453.7	48.2694
1453.97	52.3689
1454.23	56.4641
1454.5	50.3126
1454.77	52.3618
1455.03	49.2876
1455.3	44.1625
1455.56	51.3318
1455.83	50.308
1456.1	52.3662
1456.36	49.2962
1456.63	50.3208
1456.9	44.1672
1457.16	47.2336
1457.43	49.2749
1457.7	50.2954
1457.96	45.1699
1458.23	52.3384
1458.49	44.1435
1458.76	46.1931
1459.03	48.2445
1459.29	48.2466
1459.56	47.2235
1459.82	46.1997
1460.09	40.0503
1460.36	50.2925
1460.62	44.1421
1460.89	46.1868
1461.16	48.2301
1461.42	43.103
1461.69	44.1212
1461.95	53.3292
1462.22	50.249
1462.49	49.2161
1462.75	44.0894
1463.02	47.1488
1463.28	47.1377
1463.55	46.1036
1463.82	49.1608
1464.08	42.0022
1464.35	45.0831
1464.61	45.1037
1464.88	45.1196
1465.15	53.3327
1465.41	46.1289
1465.68	51.1518
1465.94	47.0275
1466.21	44.9816
1466.48	42.9536
1466.74	47.0321
1467.01	51.0922
1467.27	52.1053
1467.54	48.0291
1467.8	56.1872
1468.07	50.0623
1468.34	50.0598
1468.6	45.9784
1468.87	51.0773
1469.13	46.9941
1469.4	43.9295
1469.67	50.0424
1469.93	44.9347
1470.2	41.8658
1470.46	47.9724
1470.73	42.8705
1470.99	41.8463
1471.26	49.9935
1471.53	44.8929
1471.79	45.9022
1472.06	44.8773
1472.32	46.9103
1472.59	50.9813
1472.85	49.9613
1473.12	49.9595
1473.39	45.8829
1473.65	49.9479
1473.92	52.9936
1474.18	46.8806
1474.45	44.8417
1474.71	43.8236
1474.98	47.8982
1475.24	48.9188
1475.51	48.9192
1475.78	46.8817
1476.04	42.8063
1476.31	43.8178
1476.57	48.9006
1476.84	45.8438
1477.1	45.8362
1477.37	45.8284
1477.63	45.8242
1477.9	44.8053
1478.16	46.8377
1478.43	43.7815
1478.69	46.8225
1478.96	48.8483
1479.22	54.9388
1479.49	47.8159
1479.76	45.7746
1480.02	47.7959
1480.29	46.77
1480.55	42.6921
1480.82	45.7241
1481.08	50.7884
1481.35	46.7249
1481.61	46.7166
1481.88	44.6914
1482.14	48.7571
1482.41	41.6613
1482.67	47.7603
1482.94	41.6758
1483.2	49.7975
1483.47	43.7109
1483.73	47.7753
1484	50.8215
1484.26	43.7114
1484.53	47.7535
1484.79	50.77
1485.06	48.6887
1485.32	50.6468
1485.59	47.5872
1485.85	44.5177
1486.12	46.6467
1486.38	51.7266
1486.65	42.6218
1486.91	47.6399
1487.18	48.6771
1487.44	49.6976
1487.71	41.5777
1487.97	46.6322
1488.24	41.5616
1488.5	44.5922
1488.77	42.5573
1489.03	43.5588
1489.3	46.5861
1489.56	47.5924
1489.83	49.6114
1490.09	45.561
1490.36	41.5136
1490.62	44.5476
1490.89	46.5649
1491.15	44.5326
1491.42	46.5457
1491.68	48.563
1491.95	43.5055
1492.21	51.593
1492.48	44.5176
1492.74	41.4827
1493	45.524
1493.27	43.5002
1493.53	40.4669
1493.8	44.5072
1494.06	44.5051
1494.33	47.5378
1494.59	45.5188
1494.86	41.4783
1495.12	43.4982
1495.39	47.534
1495.65	42.4672
1495.92	40.4312
1496.18	46.4783
1496.45	46.4694
1496.71	46.4627
1496.97	43.4283
1497.24	47.4591
1497.5	47.4583
1497.77	44.4297
1498.03	43.4176
1498.3	42.407
1498.56	42.407
1498.82	42.4075
1499.09	45.4364
1499.35	38.3728
1499.62	51.4968
1499.88	44.4348
1500.15	41.4095
1500.41	42.4202
1500.68	44.4387
1500.94	51.5037
1501.2	46.4541
1501.47	48.4676
1501.73	42.4025
1502	43.4086
1502.26	45.4252
1502.52	39.3685
1502.79	51.4724
1503.05	43.3907
1503.32	42.3731
1503.58	48.4187
1503.85	51.4345
1504.11	43.3675
1504.37	47.4049
1504.64	45.3897
1504.9	45.3897
1505.17	47.4041
1505.43	46.3905
1505.7	49.4075
1505.96	42.3381
1506.22	44.3377
1506.49	43.3268
1506.75	45.3399
1507.02	47.3564
1507.28	46.3553
1507.54	47.3644
1507.81	48.3738
1508.07	44.3423
1508.34	40.3083
1508.6	42.3209
1508.86	47.3593
1509.13	39.2996
1509.39	44.3381
1509.66	47.36
1509.92	44.3365
1510.18	48.372
1510.45	50.3904
1510.71	45.3423
1510.98	42.3108
1511.24	46.3294
1511.5	42.2884
1511.77	46.297
1512.03	46.2724
1512.29	48.2587
1512.56	45.2196
1512.82	53.2367
1513.08	48.2009
1513.35	45.1772
1513.61	47.1759
1513.88	48.1755
1514.14	47.1824
1514.4	49.2091
1514.67	43.1863
1514.93	43.181
1515.2	42.1666
1515.46	43.1588
1515.72	45.1548
1515.99	52.1645
1516.25	53.1516
1516.51	48.1256
1516.78	46.1149
1517.04	43.1027
1517.3	41.0941
1517.57	42.0953
1517.83	43.0983
1518.09	43.101
1518.36	49.1259
1518.62	41.1045
1518.88	43.1132
1519.15	43.1153
1519.41	49.1378
1519.67	40.112
1519.94	48.1401
1520.2	47.1353
1520.47	45.1243
1520.73	48.1301
1520.99	43.1166
1521.26	47.1337
1521.52	45.1308
1521.78	49.1457
1522.05	48.1399
1522.31	46.1287
1522.57	45.12
1522.84	48.1234
1523.1	50.1239
1523.36	40.0873
1523.62	42.0798
1523.89	46.0711
1524.15	50.0658
1524.41	47.05
1524.68	48.0429
1524.94	44.0297
1525.2	44.0343
1525.47	44.0361
1525.73	41.0328
1525.99	51.055
1526.26	42.0476
1526.52	43.0605
1526.78	47.0783
1527.05	46.0793
1527.31	46.0779
1527.57	45.0687
1527.84	46.0676
1528.1	42.055
1528.36	45.0571
1528.63	47.0551
1528.89	43.0426
1529.15	44.04
1529.41	43.0357
1529.68	46.0395
1529.94	48.0392
1530.2	44.0255
1530.47	45.0245
1530.73	48.0327
