#Acq. time (s)=	30
#Accumulations=	2
#Range (cm-¹)=	1200...2365
#Windows=	3
#Auto scanning=	Off
#Autofocus=	Off
#Macrospot=	Off
#AutoExposure=	Off
#Spike filter=	Multiple accum.
#Delay time (s)=	2
#Binning=	1
#Readout mode=	Signal
#DeNoise=	Off
#ICS correction=	On
#Dark correction=	Off
#Inst. Process=	Off
#Detector Gain=	Best Dynamic
#Detector ADC=	50 kHz HS
#Detector temperature (°C)=	-60.09
#Instrument=	LabRAM HR Evol
#Detector=	SIN-EM FIVIS
#Objective=	x100_VIS_LWD
#Grating=	1800 (450-850nm)
#ND Filter=	100%
#Laser=	532nm_Edge
#Hole=	100.021
#Temperature=	0
#Range=	Visible
#StageXY=	75x50mm Scan+
#StageZ=	Z motor
#X (µm)=	0
#Y (µm)=	0
#Z (µm)=	-11.5
#Full time(mm:ss)=	3:13
#Project=	21_11_26
#Sample=	BU02Aw
#Site=	
#Title=	BU02aW-A-FF1-FI03-V_1800 (450-850nm)_532nm_Edge_100%_x100_VIS_LWD_H100um_30sX2
#Remark=	
#Date=	26.11.2021 11:11
#Acquired=	26.11.2021 11:11:48
1202.72	86.5712
1203	81.3079
1203.28	85.6406
1203.56	83.4324
1203.84	81.2132
1204.11	77.9444
1204.39	81.135
1204.67	86.5101
1204.95	76.8406
1205.23	83.2714
1205.5	88.6084
1205.78	79.9758
1206.06	81.0084
1206.34	85.258
1206.61	76.634
1206.89	77.6663
1207.17	79.7689
1207.45	87.232
1207.73	79.7102
1208	79.6872
1208.28	80.741
1208.56	87.1419
1208.84	78.5531
1209.11	74.2496
1209.39	82.781
1209.67	87.044
1209.95	75.2763
1210.23	84.8871
1210.5	78.4532
1210.78	81.6219
1211.06	80.5176
1211.34	85.826
1211.61	83.6553
1211.89	76.1584
1212.17	83.5893
1212.45	85.6856
1212.72	79.264
1213	85.6299
1213.28	86.6656
1213.56	81.3199
1213.83	74.9172
1214.11	80.2203
1214.39	75.9619
1214.67	81.2842
1214.94	79.1522
1215.22	74.8892
1215.5	86.5933
1215.78	72.7459
1216.05	75.9296
1216.33	80.1632
1216.61	85.45
1216.89	83.2825
1217.16	85.3715
1217.44	82.1536
1217.72	71.5031
1218	83.1607
1218.27	85.2611
1218.55	78.8692
1218.83	75.665
1219.1	87.3252
1219.38	72.46
1219.66	83.0594
1219.94	79.8626
1220.21	68.1772
1220.49	74.5352
1220.77	73.471
1221.04	75.5844
1221.32	78.7544
1221.6	75.5557
1221.88	79.7788
1222.15	78.692
1222.43	89.2513
1222.71	76.4999
1222.98	79.6328
1223.26	83.8226
1223.54	77.4363
1223.81	78.4572
1224.09	83.7088
1224.37	82.6193
1224.65	76.2595
1224.92	74.1295
1225.2	74.1158
1225.48	74.1099
1225.76	76.2267
1226.03	83.6217
1226.31	81.5169
1226.59	78.3409
1226.86	83.6105
1227.14	77.2572
1227.42	70.9075
1227.69	83.5257
1227.97	80.2798
1228.25	77.0676
1228.52	80.1777
1228.8	73.7876
1229.08	74.7781
1229.35	82.1236
1229.63	73.897
1229.91	75.1066
1230.18	71.868
1230.46	78.1176
1230.74	72.8198
1231.01	81.2508
1231.29	83.3044
1231.57	76.8324
1231.84	82.097
1232.12	82.0916
1232.4	82.085
1232.67	79.9701
1232.95	73.6606
1233.23	78.9055
1233.5	78.894
1233.78	80.9891
1234.06	79.9393
1234.33	73.6392
1234.61	78.8964
1234.89	82.0568
1235.16	79.9646
1235.44	77.865
1235.71	82.0734
1235.99	76.823
1236.27	79.9799
1236.54	78.9234
1236.82	81.0123
1237.1	76.7913
1237.37	76.7706
1237.65	71.4882
1237.93	81.9602
1238.2	75.6283
1238.48	74.5477
1238.76	78.7131
1239.03	78.6874
1239.31	88.1068
1239.58	83.8973
1239.86	73.4018
1240.14	70.2485
1240.41	79.6761
1240.69	73.3829
1240.97	70.2365
1241.24	82.8157
1241.52	79.6701
1241.79	84.9002
1242.07	82.7849
1242.35	79.6279
1242.62	77.5297
1242.9	80.6748
1243.18	81.7306
1243.45	78.593
1243.73	78.5881
1244	72.2954
1244.28	79.6349
1244.56	81.7268
1244.83	75.4281
1245.11	81.7058
1245.39	73.3009
1245.66	78.5169
1245.94	74.2965
1246.21	79.5026
1246.49	76.3471
1246.76	84.711
1247.04	87.8479
1247.32	81.5621
1247.59	81.5514
1247.87	88.8722
1248.14	77.3475
1248.42	94.0524
1248.7	86.709
1248.97	85.6551
1249.25	82.5189
1249.52	82.5213
1249.8	80.4202
1250.08	84.5972
1250.35	81.4568
1250.63	76.2075
1250.9	83.5016
1251.18	79.2984
1251.45	82.4138
1251.73	79.2612
1252.01	79.2436
1252.28	81.3141
1252.56	77.1184
1252.83	75.0121
1253.11	79.1675
1253.39	83.323
1253.66	77.05
1253.94	85.3946
1254.21	82.2736
1254.49	81.2416
1254.76	83.3438
1255.04	82.3031
1255.31	86.4761
1255.59	79.1693
1255.87	83.3426
1256.14	82.2905
1256.42	89.6004
1256.69	85.4264
1256.97	87.5242
1257.24	81.2575
1257.52	95.8723
1257.79	86.4557
1258.07	87.4885
1258.35	88.5222
1258.62	96.8636
1258.9	104.157
1259.17	94.7347
1259.45	104.122
1259.72	90.5607
1260	92.6583
1260.27	97.9151
1260.55	93.7094
1260.82	100.99
1261.1	97.8191
1261.37	100.921
1261.65	100.901
1261.92	107.171
1262.2	104.13
1262.48	120.992
1262.75	128.388
1263.02	134.44
1263.3	144.706
1263.58	166.533
1263.85	165.65
1264.13	190.842
1264.4	206.702
1264.68	196.342
1264.95	198.305
1265.23	184.666
1265.5	148.081
1265.78	134.479
1266.05	131.316
1266.33	114.594
1266.6	115.643
1266.88	111.475
1267.15	95.813
1267.43	90.6041
1267.7	100.037
1267.98	100.063
1268.25	103.231
1268.53	88.6172
1268.8	94.9297
1269.08	92.8498
1269.35	101.243
1269.63	90.7738
1269.9	97.051
1270.18	94.9307
1270.45	103.275
1270.73	99.0615
1271	94.8468
1271.28	101.106
1271.55	95.8629
1271.83	100.032
1272.1	105.268
1272.38	96.9153
1272.65	88.5637
1272.93	95.9256
1273.2	99.0899
1273.47	93.873
1273.75	92.8466
1274.03	94.9644
1274.3	93.9374
1274.57	90.8026
1274.85	101.293
1275.12	97.0893
1275.4	97.086
1275.67	97.0931
1275.95	105.499
1276.22	95.0202
1276.5	100.288
1276.77	94.0036
1277.05	101.369
1277.32	99.2788
1277.6	102.451
1277.87	105.625
1278.14	111.952
1278.42	104.613
1278.69	103.578
1278.97	104.656
1279.24	112.032
1279.52	106.787
1279.79	116.245
1280.07	123.595
1280.34	127.783
1280.61	130.93
1280.89	139.351
1281.16	155.139
1281.44	168.852
1281.71	186.794
1281.99	218.394
1282.26	260.49
1282.53	317.357
1282.81	427.936
1283.08	564.706
1283.36	748.548
1283.63	1014.9
1283.91	1351.84
1284.18	1776.33
1284.45	2127.38
1284.73	2154.95
1285	1853.97
1285.28	1304.95
1285.55	838.801
1285.83	559.507
1286.1	372.106
1286.37	274.246
1286.65	225.798
1286.92	185.743
1287.2	165.732
1287.47	161.507
1287.75	147.795
1288.02	139.345
1288.29	135.117
1288.57	128.798
1288.84	122.484
1289.12	115.122
1289.39	113.031
1289.66	104.625
1289.94	117.277
1290.21	96.2334
1290.49	103.621
1290.76	96.2426
1291.03	94.1218
1291.31	90.9532
1291.58	101.48
1291.86	101.476
1292.13	100.415
1292.4	96.1997
1292.68	104.628
1292.95	91.9804
1293.22	93.0227
1293.5	96.1834
1293.77	98.3186
1294.05	93.0862
1294.32	95.2315
1294.59	93.1301
1294.87	83.636
1295.14	91.0077
1295.42	87.8568
1295.69	83.6703
1295.96	90.0471
1296.24	85.883
1296.51	92.2567
1296.79	83.8071
1297.06	90.1479
1297.33	89.0776
1297.61	89.0584
1297.88	89.0365
1298.15	92.1813
1298.43	83.7052
1298.7	85.8238
1298.97	88.9815
1299.25	90.0189
1299.52	78.3899
1299.79	82.5958
1300.07	83.6469
1300.34	84.714
1300.62	88.9426
1300.89	87.8857
1301.16	81.543
1301.44	89.9828
1301.71	93.1513
1301.98	83.6594
1302.25	78.388
1302.53	81.5602
1302.8	83.6717
1303.08	81.5544
1303.35	80.4892
1303.62	87.8697
1303.9	81.5144
1304.17	78.3401
1304.44	84.674
1304.72	81.5028
1304.99	75.1626
1305.26	79.3729
1305.54	79.3552
1305.81	82.4995
1306.08	79.3118
1306.35	79.2886
1306.63	80.3238
1306.9	79.2584
1307.18	81.3638
1307.45	80.3128
1307.72	79.257
1308	78.1975
1308.27	90.85
1308.54	84.5228
1308.81	81.3499
1309.09	67.6387
1309.36	82.4152
1309.63	78.2031
1309.91	81.3768
1310.18	80.3257
1310.45	83.486
1310.73	79.2559
1311	77.1419
1311.27	84.5289
1311.55	79.2531
1311.82	82.4195
1312.09	85.5893
1312.37	83.4893
1312.64	86.6658
1312.91	81.3887
1313.18	84.5491
1313.46	84.5321
1313.73	82.4141
1314	81.3474
1314.28	77.1157
1314.55	77.112
1314.82	80.2798
1315.09	81.3401
1315.37	77.1235
1315.64	83.4651
1315.91	83.4727
1316.18	80.3115
1316.46	78.1921
1316.73	77.1273
1317	84.513
1317.28	77.1147
1317.55	77.111
1317.82	83.456
1318.09	84.517
1318.37	72.8986
1318.64	79.2367
1318.91	81.3479
1319.18	71.8364
1319.46	78.1694
1319.73	79.219
1320	73.9307
1320.28	84.4965
1320.55	83.4376
1320.82	80.2602
1321.09	82.3573
1321.37	71.7749
1321.64	71.7506
1321.91	74.8901
1322.18	79.0936
1322.46	79.0673
1322.73	76.9432
1323	85.3658
1323.27	77.968
1323.55	81.1119
1323.82	82.1723
1324.09	81.1179
1324.36	84.2791
1324.64	80.0552
1324.91	73.7262
1325.18	80.0469
1325.45	77.9396
1325.73	78.9699
1326	85.2526
1326.27	69.402
1326.54	75.6625
1326.81	81.949
1327.09	78.783
1327.36	71.4395
1327.63	76.7492
1327.9	71.5061
1328.18	78.9048
1328.45	76.8238
1328.72	76.8508
1328.99	83.2019
1329.27	82.1512
1329.54	75.8076
1329.81	73.702
1330.08	80.0253
1330.35	84.2348
1330.63	82.1105
1330.9	76.8185
1331.17	85.2312
1331.44	78.8774
1331.71	79.8963
1331.99	78.804
1332.26	72.4557
1332.53	77.6942
1332.8	81.8755
1333.07	82.8951
1333.35	76.5525
1333.62	77.5745
1333.89	79.6486
1334.16	78.5712
1334.43	80.6459
1334.71	82.7205
1334.98	77.4478
1335.25	72.1801
1335.52	78.458
1335.79	78.4394
1336.07	78.4217
1336.34	77.3559
1336.61	78.3892
1336.88	76.2778
1337.15	79.4102
1337.43	71.013
1337.7	79.3884
1337.97	82.52
1338.24	78.3045
1338.51	74.0922
1338.78	77.2197
1339.06	76.1558
1339.33	82.4264
1339.6	81.3732
1339.87	78.2313
1340.14	70.9018
1340.42	78.2301
1340.69	74.0406
1340.96	82.4177
1341.23	78.2233
1341.5	75.0744
1341.77	79.2539
1342.04	83.4294
1342.32	78.1778
1342.59	80.2503
1342.86	67.6686
1343.13	77.0617
1343.4	82.2769
1343.67	75.9916
1343.95	77.0312
1344.22	67.6143
1344.49	72.8413
1344.76	77.021
1345.03	75.9645
1345.3	70.7201
1345.58	73.8363
1345.85	68.5836
1346.12	83.1891
1346.39	82.1123
1346.66	73.7157
1346.93	73.688
1347.2	73.6617
1347.47	79.8922
1347.75	69.4394
1348.02	75.6775
1348.29	73.5793
1348.56	87.1182
1348.83	76.6864
1349.1	73.5445
1349.37	77.6941
1349.65	81.8413
1349.92	76.6152
1350.19	83.8861
1350.46	83.8674
1350.73	82.8071
1351	76.5391
1351.27	79.6367
1351.54	80.66
1351.81	79.5953
1352.09	73.3463
1352.36	82.6999
1352.63	78.5462
1352.9	77.5197
1353.17	80.6617
1353.44	87.9558
1353.71	78.6542
1353.98	77.6829
1354.25	76.5631
1354.53	80.6021
1354.8	72.2028
1355.07	77.4025
1355.34	78.4446
1355.61	82.5679
1355.88	80.4718
1356.15	78.4181
1356.42	77.3818
1356.69	75.2836
1356.96	80.4657
1357.24	83.5708
1357.51	78.3662
1357.78	76.2754
1358.05	81.4506
1358.32	80.3946
1358.59	77.2625
1358.86	78.2832
1359.13	79.3007
1359.4	85.505
1359.67	80.3032
1359.94	82.363
1360.22	76.1173
1360.49	75.0541
1360.76	81.2458
1361.03	77.0828
1361.3	76.037
1361.57	79.1396
1361.84	85.3477
1362.11	86.3748
1362.38	83.2537
1362.65	82.2055
1362.92	81.1582
1363.19	80.1163
1363.46	82.1887
1363.73	89.4488
1364	87.3851
1364.28	94.6438
1364.55	96.7108
1364.82	96.7006
1365.09	96.6865
1365.36	102.878
1365.63	95.6044
1365.9	101.788
1366.17	87.2735
1366.44	89.319
1366.71	87.2253
1366.98	88.2299
1367.25	91.2962
1367.52	86.1104
1367.79	81.9644
1368.06	95.4081
1368.33	85.0755
1368.6	88.1783
1368.87	84.0451
1369.15	102.656
1369.41	127.475
1369.68	156.432
1369.95	188.46
1370.23	159.489
1370.5	123.29
1370.77	93.2859
1371.04	103.602
1371.31	99.4471
1371.58	89.0875
1371.85	91.1185
1372.12	92.1101
1372.39	95.1655
1372.66	89.9716
1372.93	94.0677
1373.2	98.1711
1373.47	96.0927
1373.74	88.8629
1374.01	90.9108
1374.28	97.0816
1374.55	101.192
1374.82	103.242
1375.09	104.261
1375.36	107.334
1375.63	108.365
1375.9	111.465
1376.17	107.338
1376.44	103.22
1376.71	105.249
1376.98	106.249
1377.25	113.416
1377.52	114.393
1377.79	107.2
1378.06	114.43
1378.33	106.235
1378.6	112.466
1378.87	115.618
1379.14	111.51
1379.41	122.843
1379.68	118.7
1379.95	128.986
1380.22	137.199
1380.49	133.016
1380.76	141.138
1381.03	143.126
1381.3	136.898
1381.57	147.203
1381.84	152.302
1382.11	156.338
1382.38	149.065
1382.65	154.132
1382.92	159.205
1383.19	161.192
1383.46	170.375
1383.73	171.347
1384	170.287
1384.27	185.637
1384.54	196.918
1384.81	219.489
1385.08	233.883
1385.34	257.538
1385.61	292.527
1385.88	338.794
1386.15	397.388
1386.42	503.203
1386.69	735.418
1386.96	1036.44
1387.23	1679.41
1387.5	2739.3
1387.77	4047.26
1388.04	4722.51
1388.31	3783.59
1388.58	2408.7
1388.85	1339.44
1389.12	794.178
1389.39	511.304
1389.66	370.672
1389.93	280.345
1390.2	241.237
1390.46	201.04
1390.73	189.683
1391	173.267
1391.27	158.843
1391.54	138.328
1391.81	134.213
1392.08	130.08
1392.35	125.945
1392.62	112.601
1392.89	127.936
1393.16	118.701
1393.43	114.589
1393.7	112.526
1393.97	107.395
1394.23	112.5
1394.5	114.535
1394.77	104.292
1395.04	109.4
1395.31	97.1286
1395.58	105.329
1395.85	89.9848
1396.12	104.317
1396.39	98.1682
1396.66	100.203
1396.93	94.0471
1397.2	90.9614
1397.46	96.0558
1397.73	89.8967
1398	105.227
1398.27	93.9711
1398.54	93.9741
1398.81	86.8208
1399.08	98.0775
1399.35	96.033
1399.62	85.813
1399.89	92.9831
1400.16	85.824
1400.42	89.9137
1400.69	96.0651
1400.96	90.9668
1401.23	89.9503
1401.5	87.8953
1401.77	96.0957
1402.04	88.9226
1402.31	81.7786
1402.58	87.973
1402.84	89.0505
1403.11	96.2703
1403.38	96.2983
1403.65	91.1768
1403.92	97.3342
1404.19	88.0724
1404.46	90.0698
1404.73	91.106
1404.99	86.9906
1405.26	88.0023
1405.53	98.2394
1405.8	104.37
1406.07	101.272
1406.34	100.227
1406.61	110.463
1406.87	102.251
1407.14	113.527
1407.41	125.833
1407.68	143.268
1407.95	149.425
1408.22	177.113
1408.49	193.526
1408.76	219.169
1409.02	249.947
1409.29	270.479
1409.56	304.346
1409.83	274.62
1410.1	232.575
1410.37	189.488
1410.63	155.602
1410.9	137.099
1411.17	113.477
1411.44	106.273
1411.71	100.103
1411.98	102.135
1412.25	87.7857
1412.51	84.7212
1412.78	87.8175
1413.05	87.8706
1413.32	87.9751
1413.59	75.698
1413.86	79.7412
1414.12	79.6296
1414.39	84.772
1414.66	80.7221
1414.93	77.6775
1415.2	78.6954
1415.47	75.615
1415.73	75.612
1416	81.7712
1416.27	71.5068
1416.54	75.6178
1416.81	75.6221
1417.07	76.654
1417.34	75.6328
1417.61	76.6661
1417.88	74.6163
1418.15	70.5072
1418.42	65.3674
1418.68	69.4773
1418.95	74.6157
1419.22	75.6411
1419.49	65.3621
1419.76	65.3515
1420.02	77.6646
1420.29	69.4274
1420.56	67.3565
1420.83	67.3389
1421.1	74.5068
1421.36	73.4628
1421.63	70.3735
1421.9	67.2951
1422.17	68.3371
1422.44	66.3034
1422.7	72.4877
1422.97	79.7204
1423.24	74.6434
1423.51	65.4405
1423.77	70.4132
1424.04	74.3581
1424.31	78.4775
1424.58	74.2981
1424.85	72.2463
1425.11	76.3638
1425.38	75.3896
1425.65	75.3964
1425.92	84.6119
1426.19	70.2762
1426.45	65.1384
1426.72	68.2
1426.99	73.3053
1427.26	66.1053
1427.52	67.1067
1427.79	68.0993
1428.06	70.1209
1428.33	66.0101
1428.59	64.9785
1428.86	73.1672
1429.13	66.0006
1429.4	70.0992
1429.67	67.0318
1429.93	69.0879
1430.2	68.0754
1430.47	70.1406
1430.74	65.0275
1431	72.2224
1431.27	70.2003
1431.54	64.0649
1431.81	63.0467
1432.07	65.0963
1432.34	68.1591
1432.61	69.165
1432.87	62.996
1433.14	60.9216
1433.41	67.0452
1433.68	65.9876
1433.95	64.9328
1434.21	61.8407
1434.48	58.7589
1434.75	62.8819
1435.01	65.9663
1435.28	59.8175
1435.55	68.0124
1435.82	65.958
1436.08	61.8528
1436.35	64.9192
1436.62	62.8621
1436.89	61.8282
1437.15	62.8429
1437.42	63.8582
1437.69	58.7316
1437.95	59.7455
1438.22	67.9319
1438.49	67.9321
1438.76	64.8666
1439.02	66.9184
1439.29	65.8928
1439.56	62.8195
1439.82	66.9251
1440.09	62.8379
1440.36	58.7521
1440.63	61.8325
1440.89	56.7059
1441.16	64.9071
1441.43	60.8055
1441.69	60.7973
1441.96	56.6822
1442.23	63.85
1442.49	59.7587
1442.76	61.8078
1443.03	61.8174
1443.3	58.7292
1443.56	59.7406
1443.83	63.8292
1444.1	55.6181
1444.36	62.7882
1444.63	61.7637
1444.9	57.6771
1445.16	62.817
1445.43	54.6263
1445.7	63.8518
1445.97	57.6869
1446.23	60.7557
1446.5	61.7727
1446.77	59.7131
1447.03	60.7304
1447.3	58.671
1447.57	58.6614
1447.83	61.726
1448.1	54.5399
1448.37	55.5612
1448.63	59.6694
1448.9	58.6545
1449.17	58.6549
1449.43	53.5223
1449.7	58.642
1449.97	53.5033
1450.23	57.5918
1450.5	57.5784
1450.77	64.7452
1451.03	48.3369
1451.3	60.6281
1451.57	58.5696
1451.83	59.5847
1452.1	59.5752
1452.37	58.5424
1452.63	63.6589
1452.9	57.5092
1453.17	55.4595
1453.43	57.5122
1453.7	60.589
1453.97	54.4371
1454.23	58.5287
1454.5	56.4724
1454.77	59.5431
1455.03	53.3914
1455.3	58.5098
1455.56	52.3545
1455.83	58.5001
1456.1	57.4825
1456.36	57.4848
1456.63	54.4064
1456.9	57.4727
1457.16	58.4837
1457.43	61.544
1457.7	66.658
1457.96	46.1619
1458.23	57.4245
1458.49	63.5677
1458.76	51.2729
1459.03	66.6396
1459.29	56.3942
1459.56	58.4419
1459.82	56.3906
1460.09	63.5568
1460.36	59.4511
1460.62	60.4675
1460.89	61.4831
1461.16	56.3515
1461.42	59.4126
1461.69	52.2331
1461.95	58.3647
1462.22	54.2562
1462.49	57.3127
1462.75	60.367
1463.02	61.3728
1463.28	56.2402
1463.55	57.2451
1463.82	56.2064
1464.08	54.1561
1464.35	55.1931
1464.61	59.3092
1464.88	56.2574
1465.15	64.4739
1465.41	64.4187
1465.68	61.2285
1465.94	58.1107
1466.21	52.9987
1466.48	51.9917
1466.74	46.8794
1467.01	60.1173
1467.27	62.1456
1467.54	61.1281
1467.8	52.9591
1468.07	54.9917
1468.34	58.0458
1468.6	58.0412
1468.87	63.1364
1469.13	48.8493
1469.4	52.9201
1469.67	60.048
1469.93	60.0324
1470.2	53.8979
1470.46	58.9793
1470.73	53.8721
1470.99	59.9753
1471.26	53.8541
1471.53	59.9549
1471.79	56.8834
1472.06	62.9818
1472.32	60.9369
1472.59	56.8578
1472.85	58.8891
1473.12	60.92
1473.39	45.6397
1473.65	52.7548
1473.92	52.7429
1474.18	56.8034
1474.45	55.7779
1474.71	61.88
1474.98	58.8291
1475.24	56.794
1475.51	56.7912
1475.78	52.7145
1476.04	56.7767
1476.31	53.7123
1476.57	54.7206
1476.84	43.5205
1477.1	53.6818
1477.37	55.7031
1477.63	59.7625
1477.9	58.7397
1478.16	53.6498
1478.43	46.5219
1478.69	53.6249
1478.96	57.679
1479.22	57.6663
1479.49	48.5068
1479.76	47.4774
1480.02	52.5417
1480.29	53.5418
1480.55	51.4875
1480.82	55.5277
1481.08	52.4683
1481.35	59.562
1481.61	55.4898
1481.88	47.3752
1482.14	60.571
1482.41	60.579
1482.67	57.5432
1482.94	54.5033
1483.2	55.5148
1483.47	48.4106
1483.73	51.4568
1484	55.5152
1484.26	50.4324
1484.53	58.5273
1484.79	53.4169
1485.06	59.4331
1485.32	53.2724
1485.59	53.2413
1485.85	51.1724
1486.12	58.3869
1486.38	54.3472
1486.65	55.3792
1486.91	55.3134
1487.18	59.3927
1487.44	52.3048
1487.71	57.3502
1487.97	52.2683
1488.24	57.3205
1488.5	53.2567
1488.77	49.1912
1489.03	56.2596
1489.3	60.2926
1489.56	59.2701
1489.83	57.2376
1490.09	52.1714
1490.36	56.214
1490.62	52.1629
1490.89	60.2448
1491.15	54.1604
1491.42	52.1232
1491.68	55.1474
1491.95	56.1521
1492.21	51.0932
1492.48	55.1362
1492.74	58.1636
1493	48.0471
1493.27	56.1291
1493.53	58.1472
1493.8	63.1935
1494.06	54.0899
1494.33	52.0653
1494.59	61.1635
1494.86	58.1323
1495.12	56.1044
1495.39	54.0695
1495.65	48.9965
1495.92	57.0551
1496.18	51.9847
1496.45	51.9708
1496.71	59.0264
1496.97	55.9867
1497.24	53.9564
1497.5	52.9429
1497.77	60.0036
1498.03	54.9503
1498.3	54.9452
1498.56	54.9421
1498.82	47.8751
1499.09	47.8731
1499.35	52.9182
1499.62	48.8808
1499.88	51.9101
1500.15	52.9208
1500.41	51.9095
1500.68	58.9725
1500.94	54.9285
1501.2	53.9135
1501.47	52.8943
1501.73	54.8981
1502	55.9
1502.26	57.9128
1502.52	57.9067
1502.79	52.8522
1503.05	54.8541
1503.32	58.8733
1503.58	53.8199
1503.85	51.7893
1504.11	59.8518
1504.37	48.7618
1504.64	59.8534
1504.9	50.7741
1505.17	53.7932
1505.43	56.8085
1505.7	56.7956
1505.96	58.7907
1506.22	53.7273
1506.49	51.7047
1506.75	51.6993
1507.02	56.7354
1507.28	53.7176
1507.54	50.6932
1507.81	48.6766
1508.07	53.7109
1508.34	53.7033
1508.6	54.7041
1508.86	51.6788
1509.13	54.7001
1509.39	54.6973
1509.66	54.6927
1509.92	54.6888
1510.18	52.6761
1510.45	49.6527
1510.71	53.6693
1510.98	63.7288
1511.24	54.6447
1511.5	50.5971
1511.77	59.6302
1512.03	56.5754
1512.29	58.5512
1512.56	50.4769
1512.82	51.4549
1513.08	59.4715
1513.35	52.4247
1513.61	51.4062
1513.88	52.4019
1514.14	57.4316
1514.4	54.4383
1514.67	58.4585
1514.93	56.4389
1515.2	58.4299
1515.46	54.3939
1515.72	50.3606
1515.99	57.3643
1516.25	56.3392
1516.51	53.3142
1516.78	56.3133
1517.04	54.2994
1517.3	53.2892
1517.57	51.2788
1517.83	56.2893
1518.09	55.2872
1518.36	55.2943
1518.62	55.2939
1518.88	55.2944
1519.15	56.2973
1519.41	54.2926
1519.67	55.2968
1519.94	49.2762
1520.2	51.2779
1520.47	58.2916
1520.73	51.2617
1520.99	54.2708
1521.26	55.2761
1521.52	56.2812
1521.78	52.266
1522.05	50.2533
1522.31	56.2645
1522.57	49.2319
1522.84	51.228
1523.1	47.2068
1523.36	52.2086
1523.62	45.1706
1523.89	59.1769
1524.15	52.1436
1524.41	49.1232
1524.68	55.119
1524.94	45.0929
1525.2	58.1134
1525.47	53.1053
1525.73	57.1098
1525.99	57.1151
1526.26	50.1099
1526.52	46.1122
1526.78	57.1443
1527.05	57.1455
1527.31	51.1262
1527.57	57.1281
1527.84	50.1053
1528.1	57.1117
1528.36	55.099
1528.63	52.0826
1528.89	53.0747
1529.15	57.0726
1529.41	54.061
1529.68	58.0628
1529.94	44.033
1530.2	59.0428
1530.47	51.0254
1530.73	53.0297
1530.99	53.0377
