#Acq. time (s)=	45
#Accumulations=	2
#Range (cm-¹)=	1200...2380
#Windows=	6
#Auto scanning=	Off
#Autofocus=	Off
#Macrospot=	Off
#AutoExposure=	Off
#Spike filter=	Multiple accum.
#Delay time (s)=	2
#Binning=	1
#Readout mode=	Signal
#DeNoise=	Off
#ICS correction=	On
#Dark correction=	Off
#Inst. Process=	Off
#Detector Gain=	Best Dynamic
#Detector ADC=	50 kHz EM
#Detector EM gain=	100
#Detector temperature (°C)=	-60.09
#Instrument=	LabRAM HR Evol
#Detector=	SIN-EM FIVIS
#Objective=	x100_VIS_LWD
#Grating=	1800 (450-850nm)
#ND Filter=	100%
#Laser=	633nm_Edge
#Hole=	49.98
#Temperature=	0
#Range=	Visible
#StageXY=	75x50mm Scan+
#StageZ=	Z motor
#X (µm)=	0
#Y (µm)=	0
#Z (µm)=	-8.8
#Full time(mm:ss)=	9:33
#Project=	21_11_22
#Sample=	BU04w
#Site=	
#Title=	BU04w-A-FF3-FI06-V_1800 (450-850nm)_633nm_Edge_100%_x100_VIS_LWD_H50um_45sX2
#Remark=	
#Date=	22.11.2021 11:14
#Acquired=	22.11.2021 11:14:53
1200.03	294.495
1200.21	295.396
1200.38	294.213
1200.55	300.738
1200.72	289.235
1200.89	297.268
1201.07	296.475
1201.24	296.139
1201.41	294.645
1201.58	294.303
1201.76	292.509
1201.93	295.535
1202.1	295.643
1202.27	293.657
1202.44	296.545
1202.62	296.172
1202.79	294.809
1202.96	295.638
1203.13	294.611
1203.3	298.725
1203.48	293.188
1203.65	294.624
1203.82	292.4
1203.99	296.255
1204.16	293.76
1204.34	295.24
1204.51	296.511
1204.68	293.469
1204.85	292.952
1205.02	293.094
1205.2	296.603
1205.37	294.326
1205.54	299.258
1205.71	298.072
1205.88	296.077
1206.06	295.181
1206.23	297.222
1206.4	295.788
1206.57	298.2
1206.74	296.679
1206.92	294.864
1207.09	294.128
1207.26	296.805
1207.43	294.364
1207.6	297.486
1207.77	294.048
1207.95	295.286
1208.12	295.121
1208.29	290.835
1208.46	298.95
1208.63	298.09
1208.8	298.816
1208.98	297.723
1209.15	294.951
1209.32	295.728
1209.49	294.905
1209.66	292.61
1209.84	297.841
1210.01	295.208
1210.18	294.102
1210.35	295.028
1210.52	293.987
1210.69	300.104
1210.87	298.906
1211.04	293.831
1211.21	295.484
1211.38	297.571
1211.55	295.026
1211.72	293.705
1211.9	301.615
1212.07	299.231
1212.24	297.041
1212.41	293.489
1212.58	294.458
1212.75	292.45
1212.93	292.775
1213.1	297.975
1213.27	295.718
1213.44	294.842
1213.61	297.322
1213.78	293.638
1213.95	292.217
1214.13	296.497
1214.3	296.841
1214.47	301.863
1214.64	303.996
1214.81	302.431
1214.98	294.633
1215.16	295.144
1215.33	299.752
1215.5	294.244
1215.67	300.133
1215.84	293.897
1216.01	294.373
1216.18	295.862
1216.36	299.142
1216.53	296.757
1216.7	296.237
1216.87	302.774
1217.04	295.799
1217.21	299.608
1217.38	291.775
1217.56	295.256
1217.73	297.213
1217.9	296.503
1218.07	294.591
1218.24	298.664
1218.41	303.187
1218.58	296.088
1218.76	298.892
1218.93	296.165
1219.1	294.649
1219.27	298.009
1219.44	296.197
1219.61	297.924
1219.78	294.483
1219.96	299.718
1220.13	298.493
1220.3	296.614
1220.47	297.799
1220.64	299.728
1220.81	300.932
1220.98	296.237
1221.15	294.998
1221.33	292.397
1221.5	296.41
1221.67	295.37
1221.84	292.792
1222.01	297.211
1222.18	300.222
1222.35	298.99
1222.53	293.284
1222.7	296.589
1222.87	303.466
1223.04	300.12
1223.21	297.978
1223.38	295.091
1223.55	301.357
1223.72	299.358
1223.89	298.335
1224.07	296.989
1224.24	295.702
1224.41	295.274
1224.58	297.972
1224.75	295.145
1224.92	301.584
1225.09	298.069
1225.26	297.287
1225.43	296.432
1225.6	297.335
1225.78	294.697
1225.95	299.331
1226.12	301.5
1226.29	302.122
1226.46	298.181
1226.63	295.839
1226.8	310.064
1226.97	299.577
1227.14	302.48
1227.32	295.582
1227.49	296.902
1227.66	299.182
1227.83	297.007
1228	299.334
1228.17	300.114
1228.34	299.336
1228.51	301.693
1228.68	294.446
1228.85	298.336
1229.03	297.361
1229.2	298.84
1229.37	300.136
1229.54	298.476
1229.71	298.736
1229.88	295.98
1230.05	300.743
1230.22	299.073
1230.39	298.93
1230.56	301.987
1230.73	300.392
1230.91	297.434
1231.08	300.999
1231.25	300.077
1231.42	304.304
1231.59	302.299
1231.76	299.781
1231.93	302.521
1232.1	300.316
1232.27	301.458
1232.44	302.079
1232.61	304.204
1232.78	298.583
1232.96	302.309
1233.13	300.972
1233.3	296.064
1233.47	300.967
1233.64	296.466
1233.81	300.388
1233.98	300.929
1234.15	302.841
1234.32	300.378
1234.49	298.044
1234.66	300.924
1234.83	298.154
1235	301.558
1235.17	304.795
1235.35	302.444
1235.52	301.685
1235.69	303.013
1235.86	299.547
1236.03	305.568
1236.2	306.942
1236.37	308.023
1236.54	303.878
1236.71	300.665
1236.88	298.55
1237.05	301.042
1237.22	302.458
1237.39	302.741
1237.56	299.631
1237.73	303.755
1237.9	304.256
1238.07	300.618
1238.25	301.408
1238.42	300.774
1238.59	302.603
1238.76	297.38
1238.93	301.265
1239.1	300.041
1239.27	296.391
1239.44	304.742
1239.61	302.561
1239.78	303.61
1239.95	302.136
1240.12	302.824
1240.29	307.192
1240.46	304.695
1240.63	303.879
1240.8	305.579
1240.97	305.474
1241.14	304.658
1241.31	303.838
1241.48	299.838
1241.66	301.077
1241.83	302.438
1242	300.798
1242.17	299.543
1242.34	308.042
1242.51	302.755
1242.68	305.577
1242.85	302.654
1243.02	302.954
1243.19	299.867
1243.36	309.92
1243.53	303.577
1243.7	306.404
1243.87	303.514
1244.04	307.851
1244.21	300.366
1244.38	300.685
1244.55	307.574
1244.72	306.963
1244.89	300.482
1245.06	302.762
1245.23	302.344
1245.4	306.353
1245.57	303.951
1245.74	305.886
1245.91	302.78
1246.08	303.898
1246.25	299.338
1246.42	306.211
1246.59	306.619
1246.76	301.992
1246.93	304.322
1247.1	305.214
1247.27	301.262
1247.44	306.727
1247.61	308.022
1247.79	305.754
1247.96	299.43
1248.13	300.516
1248.3	303.74
1248.47	304.72
1248.64	303.905
1248.81	301.087
1248.98	302.455
1249.15	304.995
1249.32	302.797
1249.49	305.994
1249.66	306.76
1249.83	303.873
1250	307.115
1250.17	307.1
1250.34	304.285
1250.51	302.568
1250.68	300.621
1250.85	307.326
1251.02	305.104
1251.19	301.579
1251.36	309.601
1251.53	304.581
1251.7	306.097
1251.87	302.19
1252.04	303.157
1252.21	307.139
1252.38	305.136
1252.55	303.686
1252.72	307.239
1252.89	301.141
1253.06	312.195
1253.23	304.552
1253.4	304.646
1253.57	304.331
1253.74	302.873
1253.91	306.487
1254.08	307.019
1254.25	302.991
1254.42	305.238
1254.59	303.937
1254.75	310.236
1254.93	306.509
1255.09	306
1255.27	305.863
1255.43	304.793
1255.6	305.957
1255.77	314.107
1255.94	307.363
1256.11	306.691
1256.28	302.203
1256.45	306.83
1256.62	305.559
1256.79	304.928
1256.96	306.041
1257.13	303.273
1257.3	306.701
1257.47	305.606
1257.64	302.402
1257.81	303.801
1257.98	302.493
1258.15	308.562
1258.32	304.208
1258.49	303.066
1258.66	308.25
1258.83	305.87
1259	305.902
1259.17	306.195
1259.34	309.397
1259.51	305.856
1259.68	306.465
1259.85	305.372
1260.02	305.301
1260.19	301.669
1260.36	306.984
1260.53	306.08
1260.7	308.084
1260.87	306.962
1261.03	301.662
1261.2	307.082
1261.37	305.663
1261.54	308.61
1261.71	307.033
1261.88	307.685
1262.05	305.421
1262.22	305.537
1262.39	304.093
1262.56	309.771
1262.73	309.219
1262.9	306.977
1263.07	314.111
1263.24	303.899
1263.41	305.578
1263.58	310.535
1263.75	306.637
1263.92	310.585
1264.09	308.129
1264.26	306.403
1264.43	305.489
1264.59	310.152
1264.76	305.2
1264.93	310.585
1265.1	308.615
1265.27	307.317
1265.44	303.304
1265.61	307.403
1265.78	309.407
1265.95	303.39
1266.12	309.678
1266.29	305.772
1266.46	303.271
1266.63	304.91
1266.8	301.863
1266.97	309.082
1267.14	304.467
1267.3	305.246
1267.47	305.684
1267.64	305.038
1267.81	305.158
1267.98	303.956
1268.15	307.006
1268.32	302.89
1268.49	304.913
1268.66	305.861
1268.83	305.702
1269	312.064
1269.17	302.483
1269.34	303.468
1269.51	304.409
1269.67	305.364
1269.84	307.742
1270.01	305.543
1270.18	305.275
1270.35	303.293
1270.52	305.325
1270.69	307.78
1270.86	303.746
1271.03	304.492
1271.2	302.76
1271.37	306.479
1271.53	303.25
1271.7	306.526
1271.87	303.043
1272.04	300.242
1272.21	301.393
1272.38	306.012
1272.55	304.314
1272.72	306.591
1272.89	301.83
1273.06	307.52
1273.23	305.022
1273.4	304.666
1273.56	310.141
1273.73	306.274
1273.9	304.661
1274.07	303.071
1274.24	304.425
1274.41	305.616
1274.58	307.167
1274.75	303.624
1274.92	302.825
1275.09	304.119
1275.26	309.734
1275.42	306.71
1275.59	309.309
1275.76	304
1275.93	303.921
1276.1	303.146
1276.27	308.014
1276.44	303.099
1276.61	303.958
1276.77	305.494
1276.94	302.773
1277.11	307.974
1277.28	301.862
1277.45	300.806
1277.62	306.234
1277.79	304.458
1277.96	307.288
1278.13	305.964
1278.3	299.791
1278.46	303.076
1278.63	304.105
1278.8	308.057
1278.97	303.02
1279.14	304.658
1279.31	307.494
1279.48	302.266
1279.65	305.241
1279.82	303.281
1279.98	306.269
1280.15	303.368
1280.32	308.951
1280.49	308.687
1280.66	302.502
1280.83	304.17
1281	302.847
1281.17	306.312
1281.33	304.641
1281.5	306.625
1281.67	307.132
1281.84	307.717
1282.01	299.882
1282.18	310.458
1282.35	307.804
1282.51	314.107
1282.68	311.53
1282.85	309.857
1283.02	319.641
1283.19	319.816
1283.36	329.29
1283.53	326.493
1283.7	333.389
1283.86	351.366
1284.03	348.948
1284.2	366.235
1284.37	373.263
1284.54	364.22
1284.71	339.647
1284.88	339.949
1285.04	331.75
1285.21	315.134
1285.38	313.718
1285.55	314.736
1285.72	309.723
1285.89	303.687
1286.06	307.001
1286.22	307.81
1286.39	305.449
1286.56	305.636
1286.73	302.972
1286.9	306.247
1287.07	299.032
1287.23	304.886
1287.4	303.464
1287.57	305.541
1287.74	304.94
1287.91	302.329
1288.08	303.295
1288.25	306.125
1288.41	301.581
1288.58	304.475
1288.75	304.542
1288.92	301.045
1289.09	300.615
1289.26	301.936
1289.42	299.23
1289.59	304.952
1289.76	302.744
1289.93	305.771
1290.1	302.827
1290.27	301.039
1290.44	299.879
1290.6	304.036
1290.77	304.298
1290.94	305.624
1291.11	299.264
1291.28	306.195
1291.44	307.112
1291.61	305.247
1291.78	303.956
1291.95	303.137
1292.12	308.662
1292.29	304.524
1292.45	301.841
1292.62	302.116
1292.79	302.619
1292.96	301.893
1293.13	300.254
1293.3	302.113
1293.46	298.14
1293.63	306.602
1293.8	305.467
1293.97	300.048
1294.14	298.412
1294.3	300.641
1294.47	302.335
1294.64	297.202
1294.81	300.176
1294.98	297.622
1295.15	301.494
1295.31	300.872
1295.48	301.471
1295.65	305.535
1295.82	296.119
1295.99	299.748
1296.15	301.672
1296.32	304.405
1296.49	300.679
1296.66	299.221
1296.83	297.724
1296.99	306.143
1297.16	300.998
1297.33	303.579
1297.5	302.168
1297.67	309.972
1297.83	299.079
1298	299.286
1298.17	300.81
1298.34	301.951
1298.51	299.161
1298.67	301.573
1298.84	303.488
1299.01	299.25
1299.18	306.731
1299.35	303.862
1299.52	300.962
1299.68	300.702
1299.85	302.161
1300.02	300.532
1300.19	301.334
1300.36	299.064
1300.52	303.663
1300.69	302.436
1300.86	300.965
1301.03	301.313
1301.19	300.332
1301.36	302.976
1301.53	298.211
1301.7	301.21
1301.87	301.034
1302.03	302.355
1302.2	305.053
1302.37	308.044
1302.54	299.327
1302.71	300.751
1302.87	296.279
1303.04	301.132
1303.21	302.089
1303.38	303.165
1303.54	298.446
1303.71	300.944
1303.88	307.175
1304.05	299.654
1304.21	305.826
1304.38	303.556
1304.55	301.343
1304.72	299.099
1304.89	295.67
1305.05	301.793
1305.22	304.411
1305.39	297.437
1305.56	299.258
1305.72	298.889
1305.89	301.862
1306.06	303.132
1306.23	302.215
1306.4	301.911
1306.56	298.865
1306.73	303.176
1306.9	301.046
1307.07	300.89
1307.23	300.1
1307.4	302.061
1307.57	306.919
1307.74	301.929
1307.9	300.553
1308.07	308.283
1308.24	299.87
1308.41	301.592
1308.57	310.508
1308.74	299.726
1308.91	302.623
1309.08	299.969
1309.24	298.083
1309.41	301.186
1309.58	302.415
1309.75	301.891
1309.91	302.282
1310.08	302.094
1310.25	303.12
1310.42	302.009
1310.58	300.339
1310.75	301.666
1310.92	305.682
1311.09	301.003
1311.25	302.319
1311.42	300.52
1311.59	301.743
1311.76	300.842
1311.92	303.926
1312.09	301.546
1312.26	301.558
1312.43	301.563
1312.59	297.082
1312.76	298.377
1312.93	301.626
1313.1	303.497
1313.26	302.208
1313.43	307.592
1313.6	302.268
1313.77	297.138
1313.93	300.632
1314.1	299.985
1314.27	301.918
1314.43	300.638
1314.6	297.822
1314.77	300.666
1314.94	303.777
1315.1	305.275
1315.27	299.507
1315.44	302.366
1315.61	301.249
1315.77	300.679
1315.94	304.251
1316.11	302.854
1316.28	304.426
1316.44	299.574
1316.61	300.97
1316.78	300.027
1316.94	302.5
1317.11	300.088
1317.28	305.987
1317.45	298.677
1317.61	304.6
1317.78	299.697
1317.95	302.653
1318.12	301.499
1318.28	303.484
1318.45	305.768
1318.62	302.203
1318.78	309.386
1318.95	303.456
1319.12	303.524
1319.28	302.679
1319.45	304.313
1319.62	303.841
1319.79	302.104
1319.95	301.98
1320.12	302.974
1320.29	304.325
1320.45	301.73
1320.62	301.035
1320.79	304.183
1320.95	297.87
1321.12	305.719
1321.29	300.532
1321.46	308.472
1321.62	299.536
1321.79	304.17
1321.96	302.867
1322.12	303.289
1322.29	301.425
1322.46	302.502
1322.63	300.566
1322.79	302.711
1322.96	305.863
1323.13	304.782
1323.29	306.622
1323.46	301.481
1323.63	298.421
1323.79	302.972
1323.96	302.373
1324.13	300.991
1324.3	303.117
1324.46	307.351
1324.63	300.065
1324.8	304.471
1324.96	303.021
1325.13	303.797
1325.3	302.583
1325.46	302.473
1325.63	304.525
1325.8	304.878
1325.96	305.247
1326.13	302.648
1326.3	302.89
1326.46	303.888
1326.63	307.948
1326.8	304.104
1326.96	306.932
1327.13	305.086
1327.3	305.5
1327.47	307.885
1327.63	301.964
1327.8	302.407
1327.97	306.815
1328.13	307.207
1328.3	306.132
1328.47	306.011
1328.63	312.7
1328.8	304.415
1328.97	307.454
1329.13	302.636
1329.3	302.189
1329.47	302.63
1329.63	306.263
1329.8	308.96
1329.97	305.361
1330.13	305.793
1330.3	305.353
1330.47	307.628
1330.63	307.852
1330.8	310.452
1330.97	303.876
1331.13	307.064
1331.3	309.569
1331.46	309.911
1331.63	303.786
1331.8	310.592
1331.96	304.525
1332.13	306.102
1332.3	303.021
1332.46	301.429
1332.63	310.937
1332.8	308.306
1332.96	304.726
1333.13	307.491
1333.3	304.211
1333.46	305.356
1333.63	304.53
1333.8	305.01
1333.96	304.124
1334.13	309.966
1334.3	306.029
1334.46	306.455
1334.63	301.593
1334.8	303.86
1334.96	308.936
1335.13	310.185
1335.29	308.091
1335.46	306.34
1335.63	309.014
1335.79	303.265
1335.96	310.505
1336.13	304.212
1336.29	306.226
1336.46	307.032
1336.63	306.099
1336.79	309.649
1336.96	303.284
1337.13	307.577
1337.29	307.713
1337.46	304.483
1337.62	306.28
1337.79	307.526
1337.96	305.029
1338.12	311.935
1338.29	306.284
1338.46	306.703
1338.62	308.993
1338.79	304.9
1338.96	309.079
1339.12	306.988
1339.29	307.455
1339.45	307.556
1339.62	305.078
1339.79	306.147
1339.95	304.358
1340.12	307.578
1340.28	308.271
1340.45	306.035
1340.62	307.743
1340.78	307.548
1340.95	309.592
1341.12	309.082
1341.28	309.411
1341.45	308.066
1341.61	305.704
1341.78	307.948
1341.95	306.167
1342.11	305.481
1342.28	309.78
1342.44	307.676
1342.61	304.28
1342.78	301.254
1342.94	308.599
1343.11	309.642
1343.28	307.741
1343.44	309.894
1343.61	305.668
1343.77	308.668
1343.94	309.768
1344.11	306.882
1344.27	306.008
1344.44	303.881
1344.6	310.112
1344.77	308.298
1344.94	305.07
1345.1	307.148
1345.27	318.892
1345.43	310.637
1345.6	311.802
1345.77	306.895
1345.93	309.551
1346.1	308.343
1346.27	309.724
1346.43	308.366
1346.6	311.922
1346.76	313.229
1346.93	304.991
1347.09	304.911
1347.26	312.089
1347.43	311.559
1347.59	309.22
1347.76	310.266
1347.92	309.499
1348.09	308.984
1348.26	309.863
1348.42	309.857
1348.59	310.97
1348.75	306.359
1348.92	307.308
1349.08	306.859
1349.25	316.387
1349.42	303.401
1349.58	307.678
1349.75	309.126
1349.91	306.806
1350.08	307.522
1350.25	309.973
1350.41	310.513
1350.58	308.839
1350.74	310.396
1350.91	310.361
1351.07	309.733
1351.24	312.233
1351.41	310.018
1351.57	310.916
1351.74	306.552
1351.9	308.565
1352.07	310.078
1352.24	310.584
1352.4	307.666
1352.57	312.978
1352.73	310.033
1352.9	305.638
1353.06	307.134
1353.23	312.146
1353.4	311.701
1353.56	312.412
1353.73	311.858
1353.89	310.326
1354.06	307.095
1354.22	305.264
1354.39	314.05
1354.55	309.845
1354.72	309.92
1354.88	309.368
1355.05	308.558
1355.22	308.414
1355.38	306.916
1355.55	308.044
1355.71	307.445
1355.88	306.498
1356.04	310.666
1356.21	310.297
1356.38	311.472
1356.54	308.953
1356.71	310.684
1356.87	310.851
1357.04	308.348
1357.2	310.027
1357.37	311.764
1357.53	309.824
1357.7	309.955
1357.86	311.432
1358.03	308.028
1358.2	313.324
1358.36	311.61
1358.53	308.026
1358.69	307.921
1358.86	318.784
1359.02	309.363
1359.19	308.067
1359.35	313.625
1359.52	309.56
1359.69	309.643
1359.85	308.664
1360.02	314.06
1360.18	307.591
1360.35	309.581
1360.51	312.964
1360.68	312.472
1360.84	312.083
1361.01	312.442
1361.17	309.66
1361.34	308.857
1361.5	307.36
1361.67	310.413
1361.83	311.992
1362	313.584
1362.17	316.01
1362.33	306.691
1362.49	312.267
1362.66	309.041
1362.83	312.486
1362.99	309.563
1363.16	310.732
1363.32	313.273
1363.49	307.56
1363.65	313.339
1363.82	316.1
1363.98	310.679
1364.15	307.472
1364.31	311.107
1364.48	317.472
1364.64	315.844
1364.81	311.865
1364.97	309.842
1365.14	314.395
1365.3	312.321
1365.47	306.765
1365.63	310.481
1365.8	308.32
1365.97	309.273
1366.13	314.534
1366.29	310.022
1366.46	310.34
1366.63	307.869
1366.79	309.807
1366.95	307.785
1367.12	308.281
1367.29	314.856
1367.45	311.12
1367.61	310.26
1367.78	313.72
1367.95	310.635
1368.11	311.079
1368.28	306.493
1368.44	312.07
1368.61	310.146
1368.77	313.329
1368.94	316.792
1369.1	311.899
1369.27	310.708
1369.43	318.352
1369.6	314.813
1369.76	314.559
1369.93	310.272
1370.09	307.875
1370.25	309.14
1370.42	311.864
1370.59	309.043
1370.75	310.967
1370.91	312.529
1371.08	310.287
1371.25	315.296
1371.41	314.863
1371.57	309.978
1371.74	309.75
1371.91	311.824
1372.07	308.946
1372.23	310.605
1372.4	311.779
1372.56	309.854
1372.73	308.765
1372.89	312.008
1373.06	308.36
1373.22	310.554
1373.39	314.065
1373.55	307.837
1373.72	315.189
1373.88	311.026
1374.05	310.565
1374.21	310.592
1374.38	312.168
1374.54	309.088
1374.71	310.033
1374.87	307.604
1375.04	321.695
1375.2	312.424
1375.37	310.529
1375.53	311.997
1375.69	317.939
1375.86	311.895
1376.02	312.443
1376.19	308.629
1376.35	314.881
1376.52	310.232
1376.68	315.632
1376.85	314.418
1377.01	313.579
1377.18	310.269
1377.34	324.576
1377.51	311.698
1377.67	310.859
1377.84	312.688
1378	315.294
1378.17	312.184
1378.33	311.969
1378.49	310.491
1378.66	308.174
1378.82	313.466
1378.99	309.682
1379.15	312.947
1379.32	308.137
1379.48	317.551
1379.65	307.814
1379.81	309.585
1379.97	310.004
1380.14	312.293
1380.3	314.148
1380.47	312.612
1380.63	307.634
1380.8	318.558
1380.96	309.727
1381.13	313.874
1381.29	309.011
1381.46	310.92
1381.62	307.472
1381.78	315.395
1381.95	312.438
1382.11	311.69
1382.28	315.027
1382.44	309.689
1382.61	308.968
1382.77	310.196
1382.94	309.926
1383.1	311.457
1383.26	312.54
1383.43	308.901
1383.59	314.052
1383.76	310.699
1383.92	315.062
1384.09	315.867
1384.25	313.879
1384.42	316.66
1384.58	311.424
1384.74	316.991
1384.91	311.105
1385.07	313.99
1385.24	314.611
1385.4	314.703
1385.56	312.454
1385.73	322.252
1385.89	323.87
1386.06	316.694
1386.22	325.194
1386.39	327.78
1386.55	330.117
1386.72	338.252
1386.88	332.87
1387.04	357.718
1387.21	384.467
1387.37	420.055
1387.54	428.24
1387.7	459.125
1387.86	400.02
1388.03	362.01
1388.19	328.767
1388.36	330.13
1388.52	323.373
1388.68	321.471
1388.85	313.095
1389.01	323.235
1389.18	317.116
1389.34	311.134
1389.51	317.482
1389.67	313.534
1389.83	312.744
1390	314.121
1390.16	311.82
1390.33	309.401
1390.49	322.014
1390.65	315.902
1390.82	310.654
1390.98	309.888
1391.15	313.335
1391.31	305.218
1391.47	312.796
1391.64	313.682
1391.8	307.346
1391.97	313.695
1392.13	315.953
1392.29	315.911
1392.46	309.381
1392.62	311.393
1392.79	312.701
1392.95	316.854
1393.11	306.078
1393.28	315.27
1393.44	311.491
1393.61	310.71
1393.77	309.066
1393.93	312.098
1394.1	307.971
1394.26	311.525
1394.43	312.045
1394.59	309.02
1394.75	309.603
1394.92	306.698
1395.08	307.955
1395.24	312.605
1395.41	311.484
1395.57	314.488
1395.74	310.51
1395.9	313.625
1396.06	309.822
1396.23	315.33
1396.39	309.723
1396.56	310.11
1396.72	310.314
1396.88	309.396
1397.05	311.666
1397.21	307.912
1397.38	308.984
1397.54	314.104
1397.7	310.647
1397.87	311.415
1398.03	311.26
1398.19	309.637
1398.36	309.445
1398.52	311.49
1398.69	314.867
1398.85	312.649
1399.01	308.38
1399.18	311.59
1399.34	312.524
1399.5	305.603
1399.67	315.293
1399.83	309.959
1399.99	309.846
1400.16	313.945
1400.32	309.961
1400.49	309.015
1400.65	310.452
1400.81	308.632
1400.98	312.457
1401.14	308.272
1401.3	309.228
1401.47	310.251
1401.63	310.313
1401.8	309.584
1401.96	308.645
1402.12	311.794
1402.28	315.848
1402.45	309.676
1402.61	310.741
1402.78	305.932
1402.94	311.003
1403.1	308.469
1403.27	313.097
