#Acq. time (s)=	45
#Accumulations=	2
#Range (cm-¹)=	1200...2399
#Windows=	6
#Auto scanning=	Off
#Autofocus=	Off
#Macrospot=	Off
#AutoExposure=	Off
#Spike filter=	Multiple accum.
#Delay time (s)=	2
#Binning=	1
#Readout mode=	Signal
#DeNoise=	Off
#ICS correction=	On
#Dark correction=	Off
#Inst. Process=	Off
#Detector Gain=	Best Dynamic
#Detector ADC=	50 kHz EM
#Detector EM gain=	100
#Detector temperature (°C)=	-60.09
#Instrument=	LabRAM HR Evol
#Detector=	SIN-EM FIVIS
#Objective=	x100_VIS_LWD
#Grating=	1800 (450-850nm)
#ND Filter=	100%
#Laser=	633nm_Edge
#Hole=	49.98
#Temperature=	0
#Range=	Visible
#StageXY=	75x50mm Scan+
#StageZ=	Z motor
#X (µm)=	0
#Y (µm)=	0
#Z (µm)=	4.4
#Full time(mm:ss)=	9:31
#Project=	21_11_22
#Sample=	BU04w
#Site=	
#Title=	BU04w-A-FF3-FI10-V_1800 (450-850nm)_633nm_Edge_100%_x100_VIS_LWD_H50um_45sX2
#Remark=	
#Date=	22.11.2021 11:53
#Acquired=	22.11.2021 11:53:53
1201.04	292.519
1201.21	294.242
1201.39	292.759
1201.56	295.17
1201.73	290.536
1201.9	300.432
1202.08	296.61
1202.25	294.643
1202.42	294.589
1202.59	295.247
1202.76	293.741
1202.94	294.679
1203.11	299.538
1203.28	289.983
1203.45	292.154
1203.62	293.621
1203.8	295.362
1203.97	291.41
1204.14	293.717
1204.31	290.285
1204.48	291.63
1204.66	294.381
1204.83	290.949
1205	294.134
1205.17	293.716
1205.34	296.274
1205.52	296.347
1205.69	292.201
1205.86	297.041
1206.03	296.163
1206.2	291.299
1206.38	293.679
1206.55	295.351
1206.72	295.7
1206.89	292.837
1207.06	293.155
1207.24	293.934
1207.41	295.392
1207.58	296.389
1207.75	290.116
1207.92	295.209
1208.09	296.237
1208.27	292.763
1208.44	294.985
1208.61	297.103
1208.78	295.931
1208.95	296.714
1209.13	295.913
1209.3	294.807
1209.47	295.811
1209.64	299.413
1209.81	295.976
1209.98	293.268
1210.16	294.086
1210.33	293.121
1210.5	296.825
1210.67	296.299
1210.84	289.915
1211.02	290.833
1211.19	295.659
1211.36	295.62
1211.53	291.932
1211.7	296.662
1211.87	293.723
1212.04	295.425
1212.22	295.974
1212.39	296.426
1212.56	292.512
1212.73	296.377
1212.9	296.648
1213.08	295.01
1213.25	297.759
1213.42	296.734
1213.59	299.243
1213.76	293.832
1213.93	295.135
1214.11	293.494
1214.28	295.815
1214.45	292.988
1214.62	299.029
1214.79	296.642
1214.96	296.536
1215.13	296.066
1215.31	295.891
1215.48	298.091
1215.65	297.211
1215.82	294.923
1215.99	294.283
1216.16	293.991
1216.33	294.13
1216.51	293.88
1216.68	299.116
1216.85	296.924
1217.02	295.799
1217.19	296.525
1217.36	293.757
1217.54	295.186
1217.71	298.213
1217.88	295.606
1218.05	294.578
1218.22	298.649
1218.39	291.386
1218.56	294.999
1218.74	297.917
1218.91	296.128
1219.08	296.623
1219.25	299.026
1219.42	303.147
1219.59	295.906
1219.76	295.429
1219.93	297.767
1220.11	299.474
1220.28	297.576
1220.45	296.819
1220.62	297.722
1220.79	298.902
1220.96	298.235
1221.13	294.108
1221.31	293.373
1221.48	293.459
1221.65	293.346
1221.82	296.697
1221.99	296.188
1222.16	300.275
1222.33	297.976
1222.5	297.208
1222.68	294.583
1222.85	296.557
1223.02	297.161
1223.19	299.977
1223.36	301.007
1223.53	298.353
1223.7	297.397
1223.87	294.329
1224.04	297.113
1224.22	296.634
1224.39	294.204
1224.56	295.884
1224.73	300.179
1224.9	298.677
1225.07	294.146
1225.24	297.202
1225.41	297.457
1225.59	293.354
1225.76	296.625
1225.93	300.428
1226.1	296.43
1226.27	297.074
1226.44	300.199
1226.61	299.875
1226.78	296.037
1226.95	296.531
1227.12	301.516
1227.3	297.553
1227.47	297.013
1227.64	300.102
1227.81	298.055
1227.98	298.272
1228.15	301.013
1228.32	299.326
1228.49	298.786
1228.66	298.457
1228.84	296.351
1229.01	299.352
1229.18	294.778
1229.35	311.107
1229.52	304.551
1229.69	296.7
1229.86	297.953
1230.03	295.776
1230.2	301.035
1230.37	294.945
1230.54	299.973
1230.71	299.356
1230.89	300.459
1231.06	295.016
1231.23	302.066
1231.4	300.181
1231.57	302.349
1231.74	300.813
1231.91	300.549
1232.08	298.283
1232.25	300.509
1232.42	301.077
1232.59	300.139
1232.77	302.616
1232.94	302.367
1233.11	300.951
1233.28	299.083
1233.45	296.953
1233.62	299.303
1233.79	298.423
1233.96	300.995
1234.13	301.73
1234.3	302.428
1234.47	300.083
1234.64	305.924
1234.81	300.117
1234.99	304.537
1235.16	299.76
1235.33	299.525
1235.5	303.76
1235.67	306.864
1235.84	304.634
1236.01	299.476
1236.18	303.903
1236.35	302.994
1236.52	304.905
1236.69	301.693
1236.86	299.563
1237.03	301.977
1237.2	303.432
1237.37	300.846
1237.54	303.636
1237.72	299.723
1237.89	303.32
1238.06	301.56
1238.23	296.424
1238.4	300.595
1238.57	304.676
1238.74	301.428
1238.91	303.296
1239.08	302.078
1239.25	298.361
1239.42	301.81
1239.59	299.436
1239.76	298.567
1239.93	300.172
1240.1	302.858
1240.27	304.015
1240.44	303.725
1240.61	303.782
1240.79	302.608
1240.96	302.503
1241.13	302.62
1241.3	305.849
1241.47	302.848
1241.64	300.035
1241.81	305.4
1241.98	300.952
1242.15	301.497
1242.32	300.013
1242.49	302.66
1242.66	300.513
1242.83	304.637
1243	297.893
1243.17	299.87
1243.34	305.895
1243.51	307.658
1243.68	304.366
1243.85	306.535
1244.02	301.709
1244.19	301.33
1244.36	306.784
1244.53	306.619
1244.7	308.041
1244.87	300.486
1245.05	301.673
1245.21	303.328
1245.39	308.441
1245.55	304.968
1245.73	305.902
1245.9	302.774
1246.07	304.895
1246.24	303.302
1246.41	302.086
1246.58	305.577
1246.75	309.25
1246.92	309.399
1247.09	306.247
1247.26	304.268
1247.43	301.609
1247.6	305.972
1247.77	305.812
1247.94	307.552
1248.11	305.579
1248.28	305.751
1248.45	304.739
1248.62	305.894
1248.79	304.127
1248.96	305.463
1249.13	305.094
1249.3	304.806
1249.47	303.95
1249.64	303.753
1249.81	306.884
1249.98	308.12
1250.15	306.089
1250.32	303.235
1250.49	304.574
1250.66	303.794
1250.83	305.314
1251	303.982
1251.17	306.63
1251.34	303.513
1251.51	304.568
1251.68	307.172
1251.85	305.215
1252.02	306.218
1252.19	304.096
1252.36	303.098
1252.53	308.718
1252.7	306.276
1252.87	302.154
1253.04	305.089
1253.21	304.501
1253.38	305.656
1253.55	301.295
1253.72	306.921
1253.89	305.517
1254.06	307.038
1254.23	305.012
1254.4	307.21
1254.57	306.977
1254.74	308.15
1254.91	306.566
1255.08	302.953
1255.25	306.891
1255.42	304.775
1255.59	304.946
1255.76	301.837
1255.93	305.267
1256.1	302.637
1256.27	307.35
1256.44	304.838
1256.61	303.469
1256.78	305.962
1256.95	306.989
1257.12	302.336
1257.29	308.74
1257.46	303.588
1257.63	308.511
1257.8	306.763
1257.97	306.584
1258.13	305.507
1258.31	317.529
1258.47	310.161
1258.64	305.239
1258.81	311.989
1258.98	304.874
1259.15	306.146
1259.32	310.448
1259.49	302.854
1259.66	303.428
1259.83	307.405
1260	304.299
1260.17	308.717
1260.34	302.95
1260.51	307.046
1260.68	307.116
1260.85	304.9
1261.02	309.86
1261.19	308.02
1261.36	309.843
1261.53	307.543
1261.7	310.057
1261.87	305.712
1262.04	307.452
1262.21	309.598
1262.38	306.066
1262.55	304.765
1262.72	308.111
1262.89	304.869
1263.05	305.953
1263.22	306.019
1263.39	311.596
1263.56	313.571
1263.73	318.914
1263.9	311.621
1264.07	310.247
1264.24	307.447
1264.41	314.574
1264.58	305.039
1264.75	306.207
1264.92	310.543
1265.09	311.723
1265.26	308.335
1265.43	308.399
1265.6	307.413
1265.77	306.338
1265.94	311.547
1266.11	307.622
1266.27	307.798
1266.44	304.391
1266.61	312.016
1266.78	309.03
1266.95	305.984
1267.12	305.446
1267.29	306.339
1267.46	304.695
1267.63	307.006
1267.8	304.178
1267.97	307.013
1268.14	301.909
1268.31	307.992
1268.48	307.973
1268.65	310.968
1268.81	308.773
1268.98	302.848
1269.15	304.589
1269.32	307.515
1269.49	307.485
1269.66	304.344
1269.83	308.726
1270	303.536
1270.17	306.311
1270.34	304.299
1270.51	307.365
1270.68	302.642
1270.85	306.812
1271.01	300.445
1271.18	305.783
1271.35	307.54
1271.52	305.293
1271.69	305.484
1271.86	307.154
1272.03	304.283
1272.2	307.495
1272.37	305.041
1272.54	308.351
1272.71	305.645
1272.88	302.813
1273.04	310.527
1273.21	306
1273.38	304.697
1273.55	305.105
1273.72	309.309
1273.89	308.704
1274.06	311.246
1274.23	305.42
1274.4	304.576
1274.57	305.115
1274.74	305.712
1274.9	304.855
1275.07	306.112
1275.24	307.698
1275.41	306.662
1275.58	309.314
1275.75	307.161
1275.92	303.896
1276.09	309.272
1276.26	304.944
1276.42	302.109
1276.59	312.033
1276.76	307.592
1276.93	304.794
1277.1	303.907
1277.27	305.939
1277.44	303.83
1277.61	306.206
1277.78	304.47
1277.95	311.384
1278.11	302.931
1278.28	303.835
1278.45	305.098
1278.62	304.127
1278.79	304.984
1278.96	306.108
1279.13	304.666
1279.3	306.508
1279.46	308.334
1279.63	309.341
1279.8	306.248
1279.97	308.254
1280.14	306.471
1280.31	303.887
1280.48	306.675
1280.65	309.599
1280.82	307.278
1280.98	307.876
1281.15	310.339
1281.32	307.666
1281.49	310.715
1281.66	309.2
1281.83	318.871
1282	319.077
1282.17	313.489
1282.33	315.891
1282.5	325.295
1282.67	329.86
1282.84	341.285
1283.01	337.865
1283.18	352.171
1283.35	351.557
1283.52	374.133
1283.68	396.251
1283.85	420.235
1284.02	459.241
1284.19	465.348
1284.36	451.263
1284.53	450.49
1284.7	398.465
1284.86	386.591
1285.03	350.032
1285.2	339.484
1285.37	331.963
1285.54	317.763
1285.71	320.855
1285.88	312.795
1286.04	306.98
1286.21	311.881
1286.38	310.527
1286.55	314.726
1286.72	310.041
1286.89	311.304
1287.06	316.275
1287.22	305.913
1287.39	305.45
1287.56	312.695
1287.73	309.013
1287.9	302.298
1288.07	306.333
1288.24	306.138
1288.4	307.619
1288.57	302.462
1288.74	302.514
1288.91	302.084
1289.08	300.598
1289.25	303.977
1289.41	306.272
1289.58	306.977
1289.75	305.783
1289.92	303.735
1290.09	305.917
1290.26	307.111
1290.42	303.913
1290.59	307.041
1290.76	305.356
1290.93	301.608
1291.1	299.284
1291.27	302.103
1291.44	303.056
1291.6	305.277
1291.77	301.9
1291.94	299.178
1292.11	307.67
1292.28	302.511
1292.44	300.804
1292.61	303.113
1292.78	302.661
1292.95	303.881
1293.12	303.265
1293.29	304.151
1293.45	298.205
1293.62	299.507
1293.79	304.473
1293.96	303.037
1294.13	306.487
1294.29	297.672
1294.46	299.327
1294.63	305.267
1294.8	303.2
1294.97	306.67
1295.14	300.497
1295.3	301.859
1295.47	302.504
1295.64	300.49
1295.81	302.181
1295.98	302.737
1296.14	299.66
1296.31	299.374
1296.48	298.656
1296.65	304.285
1296.82	302.746
1296.99	303.126
1297.15	298.951
1297.32	304.614
1297.49	301.172
1297.66	299.958
1297.83	298.067
1297.99	301.264
1298.16	305.833
1298.33	302.947
1298.5	303.164
1298.67	303.596
1298.83	304.502
1299	299.287
1299.17	301.696
1299.34	296.805
1299.51	301.992
1299.67	296.657
1299.84	299.112
1300.01	305.58
1300.18	309.428
1300.35	300.03
1300.51	307.699
1300.68	297.436
1300.85	302.958
1301.02	300.288
1301.19	308.431
1301.35	308.999
1301.52	304.251
1301.69	299.21
1301.86	304.052
1302.03	300.296
1302.19	307.055
1302.36	306.07
1302.53	297.327
1302.7	301.816
1302.86	300.269
1303.03	302.083
1303.2	304.08
1303.37	306.231
1303.54	301.507
1303.7	301.96
1303.87	296.06
1304.04	302.662
1304.21	306.843
1304.37	302.563
1304.54	304.367
1304.71	303.151
1304.88	298.705
1305.05	302.774
1305.21	299.342
1305.38	302.501
1305.55	300.265
1305.72	298.92
1305.88	298.822
1306.05	305.141
1306.22	301.204
1306.39	299.925
1306.55	300.858
1306.72	300.143
1306.89	302.069
1307.06	297.873
1307.23	302.097
1307.39	304.089
1307.56	302.899
1307.73	301.923
1307.9	301.52
1308.06	302.194
1308.23	303.942
1308.4	300.589
1308.57	300.435
1308.73	299.768
1308.9	302.615
1309.07	301.963
1309.24	299.089
1309.41	305.212
1309.57	305.427
1309.74	299.847
1309.91	304.334
1310.07	298.065
1310.24	303.119
1310.41	297.987
1310.58	311.404
1310.75	298.626
1310.91	304.676
1311.08	312.093
1311.25	299.33
1311.42	303.531
1311.58	301.788
1311.75	300.789
1311.92	301.911
1312.08	302.572
1312.25	302.525
1312.42	300.609
1312.59	300.121
1312.75	300.38
1312.92	301.616
1313.09	303.503
1313.26	301.212
1313.42	302.533
1313.59	301.229
1313.76	300.203
1313.93	299.582
1314.09	306.077
1314.26	299.925
1314.43	300.632
1314.6	305.837
1314.76	299.652
1314.93	300.772
1315.1	300.222
1315.27	299.513
1315.43	305.397
1315.6	301.234
1315.77	300.652
1315.93	302.252
1316.1	301.812
1316.27	301.432
1316.44	300.564
1316.6	300.97
1316.77	301.024
1316.94	302.468
1317.1	304.149
1317.27	300.929
1317.44	303.747
1317.61	302.568
1317.77	300.709
1317.94	305.703
1318.11	305.53
1318.28	304.545
1318.44	302.716
1318.61	301.19
1318.78	297.245
1318.94	301.435
1319.11	301.489
1319.28	302.681
1319.45	304.35
1319.61	301.808
1319.78	299.076
1319.95	304.007
1320.11	300.94
1320.28	299.259
1320.45	302.721
1320.62	303.06
1320.78	303.163
1320.95	305.994
1321.12	299.641
1321.28	310.662
1321.45	302.404
1321.62	303.575
1321.78	302.111
1321.95	299.864
1322.12	304.303
1322.29	305.46
1322.45	305.543
1322.62	300.558
1322.79	301.698
1322.95	301.806
1323.12	303.776
1323.29	304.603
1323.45	304.517
1323.62	303.48
1323.79	303.961
1323.96	308.456
1324.12	304.052
1324.29	303.102
1324.46	302.279
1324.62	301.086
1324.79	306.481
1324.96	301.988
1325.12	301.783
1325.29	300.554
1325.46	305.522
1325.62	303.507
1325.79	301.819
1325.96	302.236
1326.13	304.658
1326.29	300.857
1326.46	305.921
1326.63	304.899
1326.79	306.13
1326.96	302.875
1327.13	305.076
1327.29	308.545
1327.46	307.875
1327.63	305.02
1327.79	302.424
1327.96	301.702
1328.13	306.178
1328.29	310.217
1328.46	304.995
1328.63	300.488
1328.79	304.418
1328.96	306.436
1329.13	304.687
1329.29	304.173
1329.46	306.713
1329.63	301.171
1329.79	305.868
1329.96	307.418
1330.13	306.826
1330.3	306.359
1330.46	304.557
1330.63	307.845
1330.8	305.357
1330.96	302.867
1331.13	306.04
1331.29	302.453
1331.46	300.728
1331.63	300.733
1331.79	304.468
1331.96	306.58
1332.13	306.102
1332.29	306.098
1332.46	301.397
1332.63	303.769
1332.79	302.172
1332.96	303.711
1333.13	306.473
1333.29	306.253
1333.46	307.365
1333.63	307.621
1333.79	306.029
1333.96	304.132
1334.13	307.914
1334.29	306.04
1334.46	303.385
1334.63	306.699
1334.79	316.139
1334.96	304.837
1335.13	305.07
1335.29	309.107
1335.46	308.399
1335.62	304.911
1335.79	309.409
1335.96	309.483
1336.12	310.357
1336.29	303.159
1336.46	301.917
1336.62	308.135
1336.79	307.604
1336.96	308.402
1337.12	306.549
1337.29	304.637
1337.46	306.539
1337.62	305.256
1337.79	303.413
1337.95	305.028
1338.12	307.846
1338.29	310.37
1338.45	306.698
1338.62	304.886
1338.79	309.008
1338.95	304.965
1339.12	304.945
1339.29	305.411
1339.45	306.517
1339.62	308.159
1339.78	307.175
1339.95	303.32
1340.12	304.503
1340.28	305.186
1340.45	308.098
1340.62	309.795
1340.78	310.63
1340.95	305.483
1341.11	304.967
1341.28	306.324
1341.45	311.154
1341.61	313.906
1341.78	307.947
1341.94	312.324
1342.11	307.535
1342.28	308.75
1342.44	311.794
1342.61	308.398
1342.78	310.501
1342.94	309.629
1343.11	309.641
1343.27	307.74
1343.44	307.835
1343.61	311.846
1343.77	312.784
1343.94	313.882
1344.1	304.819
1344.27	312.189
1344.44	309.033
1344.6	311.14
1344.77	313.449
1344.93	307.137
1345.1	307.144
1345.27	311.664
1345.43	305.479
1345.6	312.832
1345.77	305.86
1345.93	309.557
1346.1	305.248
1346.26	305.623
1346.43	308.367
1346.6	306.77
1346.76	309.107
1346.93	309.113
1347.09	306.972
1347.26	305.909
1347.42	307.428
1347.59	309.225
1347.76	324.695
1347.92	309.497
1348.09	311.046
1348.25	305.735
1348.42	306.756
1348.59	307.871
1348.75	310.491
1348.92	306.275
1349.08	307.887
1349.25	310.183
1349.42	307.535
1349.58	309.739
1349.75	306.022
1349.91	308.876
1350.08	310.618
1350.25	313.073
1350.41	308.443
1350.58	311.948
1350.74	306.258
1350.91	310.361
1351.07	308.701
1351.24	307.061
1351.41	306.92
1351.57	308.835
1351.74	318.984
1351.9	309.6
1352.07	312.151
1352.23	315.755
1352.4	309.737
1352.57	308.832
1352.73	308.995
1352.9	309.784
1353.06	307.139
1353.23	311.113
1353.39	311.695
1353.56	310.33
1353.73	311.854
1353.89	309.293
1354.06	306.058
1354.22	312.515
1354.39	306.79
1354.55	309.846
1354.72	311.993
1354.88	309.368
1355.05	312.714
1355.22	311.519
1355.38	305.883
1355.55	311.145
1355.71	309.522
1355.88	313.771
1356.04	308.588
1356.21	309.259
1356.38	313.549
1356.54	311.026
1356.71	306.542
1356.87	310.851
1357.04	311.462
1357.2	312.108
1357.37	314.881
1357.53	309.824
1357.7	310.992
1357.87	311.429
1358.03	311.14
1358.2	309.178
1358.36	307.451
1358.53	305.951
1358.69	305.847
1358.86	309.439
1359.02	310.401
1359.19	310.141
1359.35	309.471
1359.52	308.521
1359.69	307.565
1359.85	321.128
1360.02	310.948
1360.18	307.59
1360.35	310.619
1360.51	309.858
1360.68	310.395
1360.84	310.002
1361.01	311.404
1361.17	311.733
1361.34	309.899
1361.5	310.476
1361.67	309.369
1361.84	311.996
1362	310.472
1362.17	309.772
1362.33	311.883
1362.5	312.265
1362.66	315.266
1362.83	312.488
1362.99	312.679
1363.16	308.659
1363.32	314.314
1363.49	309.631
1363.65	309.196
1363.82	311.94
1363.98	312.755
1364.15	310.592
1364.31	316.313
1364.48	311.22
1364.64	313.767
1364.81	309.789
1364.98	315.035
1365.14	312.317
1365.31	313.37
1365.47	315.088
1365.64	308.402
1365.8	309.35
1365.97	314.46
1366.13	313.507
1366.3	313.153
1366.46	311.38
1366.63	307.864
1366.79	307.733
1366.96	309.849
1367.12	312.435
1367.29	309.666
1367.45	312.161
1367.62	311.307
1367.78	313.724
1367.95	313.758
1368.11	310.031
1368.28	309.613
1368.44	312.076
1368.61	310.143
1368.77	312.291
1368.94	309.5
1369.1	312.947
1369.27	317.996
1369.43	321.462
1369.6	316.89
1369.76	316.629
1369.93	315.463
1370.09	315.177
1370.26	308.087
1370.42	312.904
1370.59	315.295
1370.75	310.954
1370.92	311.486
1371.08	312.399
1371.25	312.163
1371.41	315.894
1371.58	315.167
1371.74	309.753
1371.91	314.941
1372.07	309.995
1372.24	324.166
1372.4	319.074
1372.57	310.863
1372.73	312.936
1372.9	307.843
1373.06	313.541
1373.23	311.602
1373.39	311.99
1373.56	313.034
1373.72	311.032
1373.89	316.225
1374.05	306.4
1374.22	311.64
1374.38	312.177
1374.54	311.166
1374.71	312.111
1374.87	306.555
1375.04	310.279
1375.2	310.354
1375.37	311.568
1375.53	313.053
1375.7	313.776
1375.86	310.853
1376.03	314.495
1376.19	309.672
1376.36	309.682
1376.52	311.249
1376.69	312.555
1376.85	314.416
1377.02	315.678
1377.18	310.24
1377.34	314.195
1377.51	325.257
1377.67	315.033
1377.84	311.63
1378	314.246
1378.17	309.068
1378.33	312.989
1378.5	312.569
1378.66	309.199
1378.83	314.523
1378.99	314.877
1379.16	318.154
1379.32	311.27
1379.48	310.256
1379.65	313.004
1379.81	325.161
1379.98	313.148
1380.14	315.404
1380.31	314.149
1380.47	313.677
1380.64	314.924
1380.8	317.502
1380.97	314.912
1381.13	313.881
1381.3	313.181
1381.46	315.066
1381.62	313.701
1381.79	311.227
1381.95	313.492
1382.12	315.845
1382.28	317.116
1382.45	310.712
1382.61	316.271
1382.78	317.473
1382.94	309.92
1383.1	312.478
1383.27	314.635
1383.43	315.153
1383.6	316.12
1383.76	319.009
1383.93	312.996
1384.09	310.657
1384.26	323.248
1384.42	320.795
1384.58	313.511
1384.75	319.078
1384.91	318.399
1385.08	319.176
1385.24	322.907
1385.4	319.904
1385.57	321.783
1385.73	327.471
1385.9	331.173
1386.06	337.528
1386.23	341.878
1386.39	339.205
1386.56	357.083
1386.72	382.871
1386.88	415.817
1387.05	456.223
1387.21	528.95
1387.38	617.6
1387.54	649.629
1387.7	622.193
1387.87	540.298
1388.03	449.107
1388.2	389.966
1388.36	359.21
1388.53	337.948
1388.69	345.401
1388.85	328.694
1389.02	325.304
1389.18	329.507
1389.35	319.451
1389.51	320.594
1389.68	317.695
1389.84	322.103
1390	324.537
1390.17	321.163
1390.33	313.541
1390.5	306.441
1390.66	314.865
1390.82	311.689
1390.99	310.939
1391.15	312.307
1391.32	315.566
1391.48	314.897
1391.64	309.515
1391.81	316.689
1391.97	313.701
1392.14	310.762
1392.3	310.712
1392.46	313.52
1392.63	314.506
1392.79	311.674
1392.96	310.644
1393.12	317.507
1393.28	314.225
1393.45	315.621
1393.61	309.686
1393.78	315.26
1393.94	310.024
1394.1	314.26
1394.27	311.494
1394.43	316.232
1394.6	316.236
1394.76	311.659
1394.92	311.888
1395.09	313.148
1395.25	313.664
1395.42	310.44
1395.58	313.485
1395.74	306.312
1395.91	305.319
1396.07	308.758
1396.24	308.086
1396.4	308.706
1396.56	313.237
1396.73	316.516
1396.89	313.539
1397.05	308.532
1397.22	315.169
1397.38	312.101
1397.55	307.905
1397.71	308.556
1397.87	315.56
1398.04	310.2
1398.2	308.594
1398.36	304.267
1398.53	308.437
1398.69	312.784
1398.86	312.643
1399.02	308.385
1399.18	312.626
1399.35	312.488
1399.51	309.765
1399.67	310.1
1399.84	316.171
1400	309.897
1400.17	314.941
1400.33	309.963
1400.49	307.996
1400.66	308.39
1400.82	308.615
1400.98	309.345
1401.15	316.568
1401.31	309.231
1401.47	310.244
1401.64	309.294
1401.8	314.784
1401.97	309.687
1402.13	315.95
1402.29	315.837
1402.46	311.778
1402.62	313.825
1402.78	311.09
1402.95	313.104
1403.11	311.616
1403.27	306.871
1403.44	313.017
1403.6	310.568
1403.76	309.525
1403.93	313.526
