#Acq. time (s)=	30
#Accumulations=	2
#Range (cm-¹)=	1200...2365
#Windows=	3
#Auto scanning=	Off
#Autofocus=	Off
#Macrospot=	Off
#AutoExposure=	Off
#Spike filter=	Multiple accum.
#Delay time (s)=	2
#Binning=	1
#Readout mode=	Signal
#DeNoise=	Off
#ICS correction=	On
#Dark correction=	Off
#Inst. Process=	Off
#Detector Gain=	Best Dynamic
#Detector ADC=	50 kHz HS
#Detector temperature (°C)=	-60.09
#Instrument=	LabRAM HR Evol
#Detector=	SIN-EM FIVIS
#Objective=	x100_VIS_LWD
#Grating=	1800 (450-850nm)
#ND Filter=	100%
#Laser=	532nm_Edge
#Hole=	49.98
#Temperature=	0
#Range=	Visible
#StageXY=	75x50mm Scan+
#StageZ=	Z motor
#X (µm)=	0
#Y (µm)=	0
#Z (µm)=	58.6
#Full time(mm:ss)=	3:23
#Project=	21_11_22
#Sample=	BU19w
#Site=	
#Title=	BU19w-D-FF2-FI07-V_1800 (450-850nm)_532nm_Edge_100%_x100_VIS_LWD_H50um_30sX2
#Remark=	
#Date=	22.11.2021 13:19
#Acquired=	22.11.2021 13:19:23
1202.84	47.7768
1203.12	49.8998
1203.4	41.2954
1203.67	46.6364
1203.95	41.2565
1204.23	50.8803
1204.51	45.5118
1204.78	41.2185
1205.06	43.3519
1205.34	46.5542
1205.62	43.331
1205.9	42.2491
1206.17	48.6542
1206.45	42.232
1206.73	51.8521
1207.01	46.5026
1207.29	48.6316
1207.56	42.2022
1207.84	46.457
1208.12	48.5767
1208.39	49.6262
1208.67	47.4768
1208.95	54.9242
1209.23	46.3739
1209.51	50.6236
1209.78	45.2815
1210.06	49.5286
1210.34	45.2581
1210.62	44.1871
1210.89	40.9842
1211.17	47.3723
1211.45	45.2448
1211.72	46.3102
1212	46.3099
1212.28	45.2436
1212.56	44.1767
1212.84	40.9805
1213.11	46.2918
1213.39	44.1482
1213.67	40.9387
1213.94	44.1107
1214.22	38.7836
1214.5	43.022
1214.78	44.0711
1215.05	44.0607
1215.33	37.6815
1215.61	42.9796
1215.89	38.7293
1216.16	39.7878
1216.44	42.9669
1216.72	41.9014
1216.99	44.0143
1217.27	40.8303
1217.55	40.8309
1217.83	46.1315
1218.1	40.8252
1218.38	42.9382
1218.66	34.4499
1218.93	39.7397
1219.21	40.784
1219.49	45.0014
1219.77	38.6283
1220.04	36.4935
1220.32	36.4771
1220.6	40.6889
1220.88	43.845
1221.15	43.8289
1221.43	41.7054
1221.71	39.5859
1221.98	40.6354
1222.26	35.3558
1222.54	44.86
1222.81	41.6982
1223.09	42.7591
1223.37	42.758
1223.64	41.6989
1223.92	48.0256
1224.2	39.5733
1224.48	50.1047
1224.75	47.9516
1225.03	43.7065
1225.31	45.7867
1225.58	40.4867
1225.86	44.6583
1226.14	46.752
1226.41	46.8513
1226.69	46.9556
1226.97	51.1473
1227.24	48.9903
1227.52	47.9156
1227.8	54.2405
1228.07	50.0062
1228.35	56.208
1228.63	53.0596
1228.9	58.3131
1229.18	60.4134
1229.46	66.7094
1229.73	61.4546
1230.01	68.8057
1230.29	66.6973
1230.56	75.0982
1230.84	71.9503
1231.12	76.159
1231.39	78.2675
1231.67	80.3799
1231.95	91.9556
1232.22	94.065
1232.5	95.1243
1232.78	95.1362
1233.05	91.9907
1233.33	91.9907
1233.61	101.441
1233.88	100.374
1234.16	89.8453
1234.43	90.8659
1234.71	100.285
1234.99	93.9504
1235.26	83.4221
1235.54	79.1952
1235.82	83.3665
1236.09	83.3515
1236.37	72.8554
1236.65	79.1372
1236.92	66.5527
1237.2	67.5984
1237.47	66.5495
1237.75	69.6957
1238.03	70.7473
1238.3	66.5571
1238.58	65.5046
1238.85	61.3002
1239.13	61.2922
1239.41	56.0524
1239.68	55.0083
1239.96	53.9663
1240.24	61.3127
1240.51	56.0713
1240.79	61.3121
1241.06	53.9777
1241.34	57.123
1241.62	48.733
1241.89	57.1139
1242.17	59.1986
1242.45	52.8971
1242.72	47.643
1243	53.9084
1243.27	49.7118
1243.55	61.222
1243.83	57.0342
1244.1	61.2206
1244.38	58.0759
1244.65	63.3067
1244.93	50.7431
1245.2	61.1879
1245.48	60.1272
1245.76	67.4445
1246.03	66.4015
1246.31	67.4525
1246.59	71.6332
1246.86	69.5381
1247.14	69.5385
1247.41	73.7093
1247.69	68.4629
1247.96	69.4923
1248.24	71.5684
1248.51	83.0485
1248.79	78.8556
1249.07	79.8856
1249.34	84.0478
1249.62	82.988
1249.89	80.8831
1250.17	87.1291
1250.45	91.2934
1250.72	96.5099
1251	80.8686
1251.27	78.7957
1251.55	88.209
1251.82	89.2623
1252.1	81.9538
1252.38	79.8711
1252.65	83.0046
1252.93	86.1331
1253.2	81.9591
1253.48	81.9649
1253.75	75.7101
1254.03	78.8484
1254.3	83.0234
1254.58	71.5232
1254.86	74.6494
1255.13	66.2902
1255.41	69.4169
1255.68	70.4546
1255.96	64.1737
1256.23	69.3888
1256.51	69.3976
1256.78	62.0955
1257.06	65.2613
1257.33	64.1997
1257.61	63.1418
1257.88	68.3356
1258.16	65.1883
1258.44	63.0909
1258.71	58.9197
1258.99	57.9256
1259.26	63.2229
1259.54	53.8744
1259.81	57.96
1260.09	57.8907
1260.36	58.8894
1260.64	59.9926
1260.91	58.9947
1261.19	62.1815
1261.46	60.1373
1261.74	58.0054
1262.01	68.4401
1262.29	67.3938
1262.56	71.5712
1262.84	88.274
1263.11	83.0482
1263.39	96.6374
1263.66	98.7397
1263.94	97.7123
1264.21	94.5979
1264.49	81.0281
1264.76	68.4986
1265.04	62.2421
1265.31	64.3622
1265.59	50.7734
1265.86	52.8787
1266.14	50.792
1266.41	50.7987
1266.69	46.6063
1266.96	52.8815
1267.24	53.9132
1267.51	55.9947
1267.79	44.4674
1268.06	44.4591
1268.34	46.5484
1268.61	45.4964
1268.89	44.4518
1269.16	43.4147
1269.44	45.5206
1269.71	45.5372
1269.99	45.5499
1270.26	45.5617
1270.54	49.7664
1270.81	45.5858
1271.09	44.5491
1271.36	47.7036
1271.64	48.7555
1271.91	47.7051
1272.18	46.656
1272.46	45.6114
1272.74	41.4218
1273.01	45.6264
1273.28	46.6866
1273.56	38.297
1273.83	40.4043
1274.11	47.7612
1274.38	46.7219
1274.66	46.7333
1274.93	49.8974
1275.21	46.754
1275.48	42.557
1275.76	49.9309
1276.03	46.7836
1276.3	44.6885
1276.58	48.8941
1276.85	47.8385
1277.13	48.8841
1277.4	48.8814
1277.68	44.6781
1277.95	46.7851
1278.23	49.9525
1278.5	53.1264
1278.77	49.9772
1279.05	57.3435
1279.32	58.4008
1279.6	53.1454
1279.87	57.3487
1280.15	66.7954
1280.42	68.8359
1280.69	71.9577
1280.97	73.0111
1281.24	90.888
1281.52	103.748
1281.79	110.089
1282.07	155.408
1282.34	213.262
1282.61	257.399
1282.89	398.472
1283.16	556.525
1283.44	796.662
1283.71	1066.03
1283.99	1080.76
1284.26	803.809
1284.53	492.106
1284.81	280.466
1285.08	198.347
1285.36	139.412
1285.63	105.74
1285.9	88.907
1286.18	76.2886
1286.45	66.8272
1286.73	67.8923
1287	67.9063
1287.28	65.8121
1287.55	54.2262
1287.82	56.3266
1288.1	59.4828
1288.37	52.1092
1288.64	53.1619
1288.92	46.8411
1289.19	50.0003
1289.47	54.2166
1289.74	50.002
1290.01	47.8911
1290.29	48.9459
1290.56	48.9598
1290.84	42.657
1291.11	45.8379
1291.38	43.737
1291.66	43.7365
1291.93	51.1157
1292.21	50.0675
1292.48	45.8676
1292.75	44.8365
1293.03	38.5293
1293.3	40.6614
1293.57	41.7237
1293.85	42.7819
1294.12	43.8351
1294.4	41.7142
1294.67	44.8755
1294.94	36.4151
1295.22	43.7978
1295.49	43.8004
1295.76	37.4626
1296.04	38.5123
1296.31	40.6184
1296.58	41.6677
1296.86	40.6108
1297.13	39.5613
1297.4	39.5659
1297.68	37.4556
1297.95	39.5659
1298.22	41.6759
1298.5	37.4541
1298.77	38.5159
1299.04	38.5221
1299.32	39.582
1299.59	41.6961
1299.87	37.4704
1300.14	42.7496
1300.41	34.2959
1300.69	36.402
1300.96	39.5678
1301.23	38.5125
1301.51	38.5127
1301.78	38.5123
1302.05	38.5081
1302.33	34.279
1302.6	33.216
1302.87	39.5397
1303.15	35.3103
1303.42	40.5766
1303.69	34.2449
1303.97	38.4627
1304.24	36.3568
1304.51	39.5224
1304.79	34.2482
1305.06	36.357
1305.33	38.4692
1305.6	37.4117
1305.88	39.5227
1306.15	34.2544
1306.42	38.4795
1306.7	35.3195
1306.97	38.4894
1307.24	36.378
1307.52	39.5412
1307.79	35.32
1308.06	37.432
1308.34	34.268
1308.61	36.3804
1308.88	39.5494
1309.15	33.2221
1309.43	39.5623
1309.7	37.4535
1309.97	40.6206
1310.25	35.3352
1310.52	30.055
1310.79	37.4419
1311.06	33.2168
1311.34	38.4941
1311.61	34.2738
1311.88	40.6111
1312.16	40.6161
1312.43	32.1735
1312.7	36.402
1312.98	32.1819
1313.25	34.2936
1313.52	34.2914
1313.79	33.2338
1314.07	32.1767
1314.34	33.2327
1314.61	38.5178
1314.89	32.184
1315.16	35.3553
1315.43	37.4697
1315.7	32.1883
1315.98	34.3014
1316.25	32.1877
1316.52	34.2992
1316.79	34.2979
1317.07	37.4692
1317.34	37.4699
1317.61	34.299
1317.88	31.1256
1318.16	36.3991
1318.43	33.2218
1318.7	34.2664
1318.97	34.2604
1319.25	35.3053
1319.52	35.3004
1319.79	34.2408
1320.06	34.2362
1320.34	31.0654
1320.61	34.2324
1320.88	35.2884
1321.16	31.0714
1321.43	28.9613
1321.7	38.4522
1321.97	25.7974
1322.25	32.127
1322.52	34.2281
1322.79	33.1592
1323.06	31.0348
1323.33	33.1161
1323.61	36.2621
1323.88	29.9459
1324.15	33.1109
1324.42	35.2402
1324.7	31.039
1324.97	34.2111
1325.24	30.0074
1325.51	30.0193
1325.79	32.139
1326.06	35.3091
1326.33	37.4129
1326.6	30.0322
1326.87	34.2511
1327.15	33.1936
1327.42	33.1894
1327.69	34.2382
1327.96	33.1759
1328.23	35.2743
1328.51	28.939
1328.78	31.0326
1329.05	33.1272
1329.32	28.9078
1329.6	33.1081
1329.87	35.2007
1330.14	34.1365
1330.41	30.9718
1330.68	35.1657
1330.96	29.9028
1331.23	29.8944
1331.5	35.1366
1331.77	29.8792
1332.04	35.1204
1332.32	31.9656
1332.59	31.9595
1332.86	37.1985
1333.13	29.8509
1333.4	31.9436
1333.67	29.8423
1333.95	30.8871
1334.22	31.9323
1334.49	35.0741
1334.76	34.0223
1335.03	34.0146
1335.3	36.1013
1335.58	30.8589
1335.85	33.9956
1336.12	30.8501
1336.39	35.0373
1336.66	31.8969
1336.94	27.71
1337.21	29.8051
1337.48	29.806
1337.75	30.8544
1338.02	32.9484
1338.29	32.947
1338.57	32.9447
1338.84	30.8471
1339.11	30.8423
1339.38	33.9758
1339.65	30.8278
1339.93	36.0502
1340.2	32.9067
1340.47	36.0417
1340.74	32.9028
1341.01	33.9483
1341.28	28.7195
1341.55	34.9947
1341.82	32.9003
1342.1	32.8951
1342.37	34.9786
1342.64	32.8778
1342.91	27.6452
1343.18	32.8585
1343.45	32.8427
1343.73	30.7441
1344	32.8215
1344.27	34.8973
1344.54	33.8448
1344.81	31.7532
1345.08	39.0454
1345.35	30.7038
1345.63	29.6593
1345.9	29.6549
1346.17	30.6913
1346.44	30.6853
1346.71	34.8453
1346.98	32.7565
1347.25	29.6274
1347.52	31.7038
1347.8	29.6149
1348.07	33.769
1348.34	28.5621
1348.61	34.7946
1348.88	35.8312
1349.15	33.7505
1349.42	29.5942
1349.69	29.6002
1349.96	32.7308
1350.24	31.694
1350.51	30.6779
1350.78	31.7537
1351.05	34.8518
1351.32	31.6784
1351.59	33.72
1351.86	31.6455
1352.13	30.6104
1352.41	26.4449
1352.68	27.477
1352.95	31.6407
1353.22	31.6458
1353.49	29.5607
1353.76	32.6738
1354.03	29.555
1354.3	33.7062
1354.57	33.7019
1354.84	33.6967
1355.11	33.6909
1355.39	32.6469
1355.66	32.6413
1355.93	27.4475
1356.2	34.7029
1356.47	33.6607
1356.74	37.8043
1357.01	33.6483
1357.28	37.7839
1357.55	36.7372
1357.82	32.586
1358.09	33.6189
1358.36	34.654
1358.63	34.6529
1358.9	33.6151
1359.18	34.647
1359.45	35.6786
1359.72	37.746
1359.99	34.6381
1360.26	34.6399
1360.53	34.6455
1360.8	31.5429
1361.07	36.726
1361.34	35.6903
1361.61	36.7238
1361.88	33.6129
1362.15	34.6426
1362.42	34.635
1362.69	37.732
1362.97	39.7931
1363.24	37.7149
1363.51	33.5687
1363.78	36.6614
1364.05	32.514
1364.32	41.81
1364.59	39.7389
1364.86	41.8102
1365.13	40.7802
1365.4	38.7152
1365.67	37.6838
1365.94	37.686
1366.21	39.7568
1366.48	38.7256
1366.75	36.6539
1367.02	32.5145
1367.29	40.78
1367.56	37.6698
1367.83	38.6976
1368.1	37.6577
1368.37	44.8771
1368.64	55.187
1368.91	76.8389
1369.18	82.9998
1369.45	48.9374
1369.72	40.6758
1369.99	39.6376
1370.26	40.6629
1370.54	34.4742
1370.81	36.5315
1371.08	37.5587
1371.34	39.6167
1371.62	39.614
1371.89	37.5507
1372.16	30.3355
1372.43	39.6069
1372.7	42.7026
1372.97	40.6412
1373.24	37.5534
1373.51	33.4241
1373.78	35.4756
1374.05	40.6115
1374.32	37.5057
1374.59	34.4227
1374.86	42.6657
1375.13	44.7415
1375.4	38.5816
1375.67	37.5735
1375.94	44.7976
1376.21	40.6724
1376.48	40.6671
1376.75	41.6922
1377.02	40.6535
1377.29	42.6984
1377.56	44.7209
1377.83	47.7871
1378.09	41.5957
1378.36	48.8044
1378.64	47.7645
1378.91	44.659
1379.18	51.828
1379.44	46.6715
1379.71	48.7079
1379.98	47.6624
1380.25	51.7528
1380.52	55.8392
1380.79	50.7026
1381.06	52.7448
1381.33	51.7212
1381.6	55.8264
1381.87	54.8109
1382.14	56.8762
1382.41	58.9518
1382.68	56.9143
1382.95	60.0079
1383.22	66.1759
1383.49	71.3254
1383.76	70.3055
1384.03	67.224
1384.3	84.6325
1384.57	98.8119
1384.84	105.801
1385.11	126.158
1385.38	146.756
1385.65	200.274
1385.92	276.44
1386.19	402.929
1386.45	694.545
1386.72	1260.49
1386.99	2087.57
1387.26	2191.69
1387.53	1334.45
1387.8	632.117
1388.07	352.02
1388.34	221.827
1388.61	150.076
1388.88	117.257
1389.15	92.6433
1389.42	91.5983
1389.69	78.272
1389.96	75.1899
1390.23	69.0394
1390.49	61.8677
1390.76	53.6745
1391.03	58.7869
1391.3	49.5731
1391.57	57.7559
1391.84	51.6143
1392.11	48.5491
1392.38	49.5808
1392.65	47.5398
1392.92	45.4951
1393.19	48.5649
1393.46	42.4197
1393.73	42.4148
1393.99	46.5027
1394.26	44.4481
1394.53	45.4627
1394.8	45.458
1395.07	47.5029
1395.34	44.4372
1395.61	43.4192
1395.88	41.3764
1396.15	42.4018
1396.42	42.4085
1396.68	44.4603
1396.95	39.347
1397.22	41.394
1397.49	38.3283
1397.76	36.2898
1398.03	43.4628
1398.3	42.4378
1398.57	37.3217
1398.84	35.2736
1399.11	44.5045
1399.38	38.3788
1399.64	34.2995
1399.91	37.3935
1400.18	40.4852
1400.45	41.5186
1400.72	44.5996
1400.99	43.5651
1401.26	43.5403
1401.53	40.4678
1401.79	39.4388
1402.06	38.4085
1402.33	36.3506
1402.6	39.4203
1402.87	45.5651
1403.14	39.4069
1403.41	36.3277
1403.68	37.3494
1403.94	41.451
1404.21	37.3538
1404.48	40.4325
1404.75	41.4602
1405.02	40.4375
1405.29	40.4398
1405.56	39.4168
1405.82	45.5726
1406.09	46.6024
1406.36	52.7603
1406.63	45.5844
1406.9	51.742
1407.17	66.1048
1407.44	73.2719
1407.7	94.7854
1407.97	103.981
1408.24	126.503
1408.51	135.703
1408.78	135.685
1409.05	104.945
1409.31	86.5164
1409.58	75.2662
1409.85	54.7996
1410.12	51.7858
1410.39	45.6586
1410.66	40.4947
1410.92	40.436
1411.19	38.3923
1411.46	32.2608
1411.73	33.3046
1412	35.3553
1412.27	33.3035
1412.53	37.4104
1412.8	34.3313
1413.07	38.4413
1413.34	32.2836
1413.61	29.2058
1413.88	33.3173
1414.14	36.403
1414.41	33.3254
1414.68	29.2192
1414.95	29.2211
1415.22	32.3045
1415.48	32.3057
1415.75	32.3076
1416.02	32.3079
1416.29	30.2535
1416.56	33.3335
1416.82	29.2178
1417.09	30.2391
1417.36	33.3149
1417.63	31.2545
1417.9	29.1946
1418.17	28.1627
1418.43	32.2654
1418.7	27.1349
1418.97	32.2749
1419.24	34.3404
1419.5	30.2419
1419.77	31.2858
1420.04	31.3113
1420.31	29.2809
1420.58	28.1978
1420.84	28.1244
1421.11	31.2137
1421.38	29.1349
1421.65	30.1553
1421.92	28.1173
1422.18	29.1579
1422.45	31.2197
1422.72	29.1596
1422.99	30.1976
1423.26	32.2471
1423.52	31.2163
1423.79	26.0813
1424.06	33.2503
1424.33	31.191
1424.59	28.1056
1424.86	21.9513
1425.13	31.1631
1425.4	29.1132
1425.66	28.0897
1425.93	27.0674
1426.2	30.1418
1426.47	26.0486
1426.73	29.1256
1427	28.1073
1427.27	25.0402
1427.54	27.0959
1427.81	30.1798
1428.07	25.0639
1428.34	27.1253
1428.61	30.2094
1428.88	26.1045
1429.14	27.1264
1429.41	24.0421
1429.68	25.0641
1429.94	25.0571
1430.21	28.1233
1430.48	25.0374
1430.75	25.0276
1431.02	26.0453
1431.28	25.0185
1431.55	29.1264
1431.82	24.0106
1432.08	25.0364
1432.35	26.0614
1432.62	22.9868
1432.89	26.0598
1433.15	29.1322
1433.42	26.0566
1433.69	25.0298
1433.96	25.0275
1434.22	21.9525
1434.49	24.0003
1434.76	25.0221
1435.02	21.9484
1435.29	22.9735
1435.56	21.9527
1435.83	20.9304
1436.09	24.0046
1436.36	19.9078
1436.63	22.9848
1436.89	22.9899
1437.16	19.9207
1437.43	24.0249
1437.7	23.0011
1437.96	21.9761
1438.23	20.9519
1438.5	21.976
1438.77	26.0736
1439.03	22.9956
1439.3	29.1525
1439.57	21.9754
1439.83	26.0825
1440.1	20.9519
1440.37	25.0499
1440.63	22.9958
1440.9	25.0438
1441.17	21.9675
1441.43	24.0188
1441.7	20.9495
1441.97	23.0058
1442.24	21.9878
1442.5	19.9341
1442.77	21.984
1443.03	20.9564
1443.3	24.0318
1443.57	21.9788
1443.84	24.0283
1444.1	19.9245
1444.37	21.9734
1444.64	20.9453
1444.9	17.8676
1445.17	16.8421
1445.44	20.9463
1445.7	20.9513
1445.97	21.9784
1446.24	21.9782
1446.5	21.9765
1446.77	22.9992
1447.04	19.9196
1447.3	19.9162
1447.57	20.9396
1447.84	18.888
1448.1	19.9115
1448.37	17.8602
1448.64	18.8831
1448.9	20.9305
1449.17	18.8798
1449.44	24.0015
1449.7	17.8547
1449.97	22.9784
1450.24	20.9316
1450.5	20.9337
1450.77	21.9589
1451.04	18.8831
1451.3	17.8573
1451.57	20.9314
1451.83	19.9068
1452.1	17.8569
1452.37	19.905
1452.63	18.8805
1452.9	21.9583
1453.17	18.8857
1453.43	20.9357
1453.7	19.9092
1453.97	17.8565
1454.23	17.8535
1454.5	19.9011
1454.77	16.8266
1455.03	20.9233
1455.3	18.8747
1455.56	18.8751
1455.83	17.8517
1456.1	19.9016
1456.36	18.8778
1456.63	17.8537
1456.9	18.8776
1457.16	17.8519
1457.43	21.9484
1457.69	16.8248
1457.96	17.8473
1458.23	15.7967
1458.49	18.8667
1458.76	18.864
1459.02	21.9319
1459.29	17.8339
1459.56	20.9003
1459.82	17.8265
1460.09	17.8224
1460.36	19.8634
1460.62	14.7471
1460.89	20.8805
1461.15	20.8864
1461.42	18.85
1461.69	19.8803
1461.95	17.8412
1462.22	18.8544
1462.48	18.8186
1462.75	19.8233
1463.02	20.8407
1463.28	17.785
1463.55	17.784
1463.81	17.7762
1464.08	17.7731
1464.35	16.7548
1464.61	18.7941
1464.88	19.8129
1465.14	19.8119
1465.41	14.7113
1465.67	18.7911
1465.94	17.7701
1466.21	18.7882
1466.47	16.7464
1466.74	15.7237
1467	18.778
1467.27	16.736
1467.54	14.6956
1467.8	19.7884
1468.07	20.8057
1468.33	15.7095
1468.6	20.7989
1468.86	17.7409
1469.13	16.7212
1469.39	16.7205
1469.66	16.72
1469.93	16.7195
1470.19	15.7002
1470.46	18.7519
1470.72	15.6955
1470.99	16.7113
1471.25	16.71
1471.52	17.7275
1471.79	17.7289
1472.05	16.7124
1472.32	17.7304
1472.58	16.712
1472.85	18.746
1473.11	17.7259
1473.38	16.7066
1473.64	16.7051
1473.91	18.737
1474.17	17.7168
1474.44	14.6642
1474.71	18.7315
1474.97	18.731
1475.24	22.7962
1475.5	17.7086
1475.77	18.7225
1476.03	15.6706
1476.3	17.7003
1476.56	14.649
1476.83	15.6616
1477.09	16.6738
1477.36	18.6984
1477.62	16.6631
1477.89	15.6449
1478.15	16.658
1478.42	18.6842
1478.68	17.671
1478.95	14.6296
1479.22	15.6471
1479.48	17.6804
1479.75	13.6221
1480.01	13.6221
1480.28	16.6698
1480.54	18.7019
1480.81	17.6865
1481.07	14.6396
1481.34	18.6941
1481.6	19.6985
1481.87	17.6511
1482.13	14.5907
1482.4	16.6068
1482.66	16.5923
1482.93	17.6439
1483.19	18.6626
1483.46	15.6294
1483.72	16.6245
1483.99	15.6198
1484.25	15.6226
1484.52	16.631
1484.78	16.627
1485.05	17.6374
1485.31	15.6094
1485.58	16.6183
1485.84	16.6142
1486.11	16.611
1486.37	17.621
1486.64	13.5724
1486.9	17.6181
1487.17	18.6296
1487.43	17.6177
1487.7	16.604
1487.96	14.578
1488.22	16.5973
1488.49	16.5956
1488.75	17.6058
1489.02	15.5836
1489.28	17.6064
1489.55	18.6168
1489.81	14.5719
1490.08	18.6151
1490.34	14.5713
1490.61	16.592
1490.87	18.6129
1491.14	18.613
1491.4	18.6141
1491.67	18.6158
1491.93	16.5932
1492.19	14.569
1492.46	15.5752
1492.72	15.5695
1492.99	13.5452
1493.25	15.562
1493.52	15.5598
1493.78	15.5579
1494.05	17.5741
1494.31	17.5739
1494.58	15.5552
1494.84	14.545
1495.1	16.563
1495.37	19.5907
1495.63	17.5726
1495.9	13.5361
1496.16	17.5738
1496.43	18.5842
1496.69	13.5385
1496.96	18.5874
1497.22	17.5784
1497.48	15.5591
1497.75	18.5872
1498.01	20.6056
1498.28	14.547
1498.54	16.5625
1498.81	17.5705
1499.07	16.5608
1499.34	16.5601
1499.6	15.5496
1499.86	15.5463
1500.13	17.5602
1500.39	16.5497
1500.66	20.5798
1500.92	16.5463
1501.18	14.5311
1501.45	15.5402
1501.71	16.5487
1501.98	15.5395
1502.24	16.5462
1502.5	15.5355
1502.77	17.5471
1503.03	18.548
1503.3	17.5392
1503.56	13.5089
1503.83	16.5317
1504.09	17.5417
1504.35	15.527
1504.62	14.52
1504.88	18.5507
1505.15	16.5341
1505.41	17.5407
1505.67	18.5485
1505.94	15.5262
1506.2	17.5417
1506.47	15.5262
1506.73	18.5489
1506.99	18.5507
1507.26	16.5366
1507.52	19.5562
1507.78	18.545
1508.05	16.5263
1508.31	14.5078
1508.58	17.5217
1508.84	15.5004
1509.1	16.4978
1509.37	15.4846
1509.63	15.4779
1509.9	17.4825
1510.16	17.4784
1510.42	17.475
1510.69	19.481
1510.95	16.473
1511.21	16.4794
1511.48	13.4676
1511.74	16.4793
1512.01	18.4841
1512.27	17.4751
1512.53	17.4706
1512.8	16.4619
1513.06	16.4569
1513.32	16.4533
1513.59	14.446
1513.85	16.4502
1514.11	16.4491
1514.38	15.4459
1514.64	14.4435
1514.9	15.4471
1515.17	15.4498
1515.43	16.4536
1515.7	14.4487
1515.96	15.4526
1516.22	17.4602
1516.49	13.4485
1516.75	17.4623
1517.01	15.4554
1517.28	16.4571
1517.54	16.4559
1517.8	13.4472
1518.07	14.4517
1518.33	16.4597
1518.59	13.45
1518.86	16.4596
1519.12	17.4614
1519.38	15.453
1519.65	16.4542
1519.91	15.4495
1520.17	18.4553
1520.44	17.4473
1520.7	15.4362
1520.96	15.432
1521.23	16.4303
1521.49	15.4259
1521.75	15.4234
1522.02	16.4263
1522.28	16.4271
1522.54	20.4337
1522.81	18.4332
1523.07	15.431
1523.33	18.4414
1523.59	16.4405
1523.86	16.4419
1524.12	18.4463
1524.38	15.4368
1524.65	13.4314
1524.91	19.4428
1525.17	16.4352
1525.44	17.435
1525.7	17.4331
1525.96	13.4246
1526.23	15.4272
1526.49	16.4285
1526.75	16.4274
1527.02	19.4289
1527.28	15.4225
1527.54	15.4238
1527.8	17.4301
1528.07	14.4281
1528.33	16.4343
1528.59	16.4347
1528.86	15.4315
1529.12	17.436
1529.38	15.4297
1529.64	16.4334
1529.91	17.4399
1530.17	14.4383
