#Acq. time (s)=	30
#Accumulations=	2
#Range (cm-¹)=	1200...2365
#Windows=	3
#Auto scanning=	Off
#Autofocus=	Off
#Macrospot=	Off
#AutoExposure=	Off
#Spike filter=	Multiple accum.
#Delay time (s)=	2
#Binning=	1
#Readout mode=	Signal
#DeNoise=	Off
#ICS correction=	On
#Dark correction=	Off
#Inst. Process=	Off
#Detector Gain=	Best Dynamic
#Detector ADC=	50 kHz HS
#Detector temperature (°C)=	-60.09
#Instrument=	LabRAM HR Evol
#Detector=	SIN-EM FIVIS
#Objective=	x50_VIS_LWD
#Grating=	1800 (450-850nm)
#ND Filter=	100%
#Laser=	532nm_Edge
#Hole=	100.021
#Temperature=	0
#Range=	Visible
#StageXY=	75x50mm Scan+
#StageZ=	Z motor
#X (µm)=	0
#Y (µm)=	0
#Z (µm)=	2.5
#Full time(mm:ss)=	3:18
#Project=	21_11_26
#Sample=	BU19(2)w
#Site=	
#Title=	BU19(2)w-A-FF2b-FI05-V_1800 (450-850nm)_532nm_Edge_100%_x50_VIS_LWD_H100um_30sX2
#Remark=	
#Date=	26.11.2021 14:50
#Acquired=	26.11.2021 14:50:13
1202.72	100.552
1203	101.773
1203.28	100.728
1203.56	95.2835
1203.84	94.1335
1204.11	98.3884
1204.39	99.4237
1204.67	100.502
1204.95	95.1372
1205.23	96.1925
1205.5	92.9311
1205.78	88.5954
1206.06	97.1414
1206.34	91.7283
1206.61	89.5391
1206.89	92.7118
1207.17	91.5952
1207.45	92.6296
1207.73	93.6756
1208	92.5812
1208.28	88.2833
1208.56	95.7553
1208.84	97.8651
1209.11	96.7676
1209.39	86.0482
1209.67	91.3824
1209.95	82.8245
1210.23	88.1609
1210.5	88.1418
1210.78	91.3089
1211.06	90.2033
1211.34	89.1054
1211.61	86.936
1211.89	85.8419
1212.17	89.0056
1212.45	87.9041
1212.72	93.2077
1213	81.4594
1213.28	83.564
1213.56	83.546
1213.83	84.599
1214.11	82.4507
1214.39	81.3886
1214.67	83.5197
1214.94	80.3255
1215.22	95.2288
1215.5	83.513
1215.78	84.5721
1216.05	87.7573
1216.33	84.541
1216.61	81.3181
1216.89	87.6619
1217.16	85.4998
1217.44	83.3471
1217.72	84.3841
1218	83.2965
1218.27	88.5847
1218.55	85.3791
1218.83	83.2373
1219.1	76.8592
1219.38	80.0358
1219.66	85.332
1219.94	90.6244
1220.21	86.3643
1220.49	86.3603
1220.77	83.1774
1221.04	87.4138
1221.32	84.2223
1221.6	82.0854
1221.88	86.3098
1222.15	77.8051
1222.43	75.6546
1222.71	81.9721
1222.98	85.1049
1223.26	78.716
1223.54	83.9658
1223.81	82.8727
1224.09	86.0121
1224.37	71.1936
1224.65	79.6224
1224.92	83.8288
1225.2	82.7606
1225.48	80.6458
1225.76	88.0443
1226.03	84.8849
1226.31	79.6149
1226.59	83.8327
1226.86	84.8811
1227.14	81.6969
1227.42	83.7925
1227.69	78.4735
1227.97	79.4506
1228.25	83.6142
1228.52	82.5126
1228.8	78.2263
1229.08	75.0127
1229.35	79.2084
1229.63	76.2432
1229.91	79.571
1230.18	85.8222
1230.46	81.5253
1230.74	76.2289
1231.01	82.556
1231.29	86.7169
1231.57	83.3932
1231.84	86.5596
1232.12	73.9468
1232.4	84.4508
1232.67	77.0848
1232.95	84.4361
1233.23	86.5311
1233.5	80.2186
1233.78	85.4674
1234.06	88.6223
1234.33	87.5785
1234.61	80.231
1234.89	79.1906
1235.16	81.3045
1235.44	82.3609
1235.71	86.5721
1235.99	76.068
1236.27	82.3815
1236.54	85.5331
1236.82	82.3673
1237.1	84.4552
1237.37	85.4863
1237.65	84.4056
1237.93	85.4242
1238.2	89.5915
1238.48	85.3602
1238.76	88.4752
1239.03	77.9621
1239.31	81.0929
1239.58	87.3709
1239.86	82.119
1240.14	83.1606
1240.41	87.3493
1240.69	90.4922
1240.97	78.963
1241.24	89.4486
1241.52	80.0158
1241.79	83.1519
1242.07	85.2316
1242.35	78.9331
1242.62	84.1729
1242.9	83.1288
1243.18	83.1392
1243.45	87.3422
1243.73	88.3879
1244	89.4357
1244.28	87.3436
1244.56	92.5829
1244.83	87.3343
1245.11	82.0836
1245.39	94.6397
1245.66	92.5192
1245.94	84.1074
1246.21	94.5476
1246.49	94.533
1246.76	90.3372
1247.04	88.243
1247.32	91.3801
1247.59	87.1845
1247.87	85.0883
1248.14	92.4032
1248.42	96.552
1248.7	98.6237
1248.97	97.5717
1249.25	97.5764
1249.52	86.0765
1249.8	97.5745
1250.08	89.203
1250.35	93.3863
1250.63	88.137
1250.9	95.4307
1251.18	93.3178
1251.45	91.2081
1251.73	95.37
1252.01	97.4413
1252.28	98.4667
1252.56	90.0935
1252.83	94.2514
1253.11	97.3616
1253.39	97.3417
1253.66	92.1133
1253.94	100.46
1254.21	94.2132
1254.49	97.3614
1254.76	97.3813
1255.04	96.3441
1255.31	99.4754
1255.59	103.659
1255.87	104.702
1256.14	104.696
1256.42	107.832
1256.69	117.238
1256.97	128.744
1257.24	131.882
1257.52	138.141
1257.79	134.987
1258.07	134.974
1258.35	122.432
1258.62	124.509
1258.9	119.273
1259.17	123.419
1259.45	131.764
1259.72	138.041
1260	140.148
1260.27	148.56
1260.55	161.05
1260.82	166.229
1261.1	173.473
1261.37	202.64
1261.65	224.511
1261.92	217.238
1262.2	224.739
1262.48	246.988
1262.75	240.865
1263.02	242.559
1263.3	234.963
1263.58	230.683
1263.85	208.989
1264.13	186.168
1264.4	193.661
1264.68	165.513
1264.95	161.226
1265.23	146.553
1265.5	153.868
1265.78	137.132
1266.05	135.016
1266.33	137.104
1266.6	128.753
1266.88	130.859
1267.15	124.611
1267.43	115.229
1267.7	129.9
1267.98	134.121
1268.25	127.885
1268.53	132.128
1268.8	127.986
1269.08	121.725
1269.35	121.743
1269.63	129.092
1269.9	121.749
1270.18	130.101
1270.45	115.399
1270.73	128.984
1271	121.625
1271.28	116.37
1271.55	127.872
1271.83	120.529
1272.1	121.583
1272.38	120.564
1272.65	128.972
1272.93	131.115
1273.2	116.481
1273.47	120.702
1273.75	133.312
1274.03	133.346
1274.3	123.941
1274.57	131.303
1274.85	132.357
1275.12	126.057
1275.4	133.398
1275.67	148.098
1275.95	140.777
1276.22	148.146
1276.5	145.032
1276.77	154.506
1277.05	154.535
1277.32	171.358
1277.6	156.693
1277.87	165.135
1278.14	183.04
1278.42	188.331
1278.69	208.341
1278.97	219.968
1279.24	241.039
1279.52	283.158
1279.79	339.946
1280.07	386.2
1280.34	460.827
1280.61	616.46
1280.89	826.864
1281.16	1088.86
1281.44	1442.66
1281.71	1927.25
1281.99	2419.09
1282.26	2885.34
1282.53	3071.94
1282.81	3074.4
1283.08	2864.41
1283.36	2497.91
1283.63	1998.51
1283.91	1472.36
1284.18	1100.34
1284.45	813.901
1284.73	588.02
1285	466.946
1285.28	364.726
1285.55	327.686
1285.83	281.248
1286.1	251.772
1286.37	232.87
1286.65	196.009
1286.92	192.813
1287.2	182.281
1287.47	174.899
1287.75	166.451
1288.02	159.053
1288.29	148.511
1288.57	149.561
1288.84	144.302
1289.12	146.416
1289.39	148.542
1289.66	133.829
1289.94	139.117
1290.21	129.666
1290.49	143.382
1290.76	124.419
1291.03	120.191
1291.31	126.503
1291.58	113.861
1291.86	126.497
1292.13	121.226
1292.4	119.119
1292.68	124.392
1292.95	119.118
1293.22	123.32
1293.5	119.112
1293.77	118.097
1294.05	110.767
1294.32	108.704
1294.59	113.988
1294.87	111.879
1295.14	122.414
1295.42	113.998
1295.69	109.825
1295.96	106.717
1296.24	106.792
1296.51	112.12
1296.79	113.188
1297.06	113.19
1297.33	108.949
1297.61	105.759
1297.88	103.623
1298.15	103.598
1298.43	100.402
1298.7	107.806
1298.97	102.516
1299.25	97.2183
1299.52	99.3155
1299.79	101.41
1300.07	105.63
1300.34	103.536
1300.62	102.489
1300.89	97.2118
1301.16	94.0387
1301.44	97.2015
1301.71	97.2053
1301.98	91.9405
1302.25	101.46
1302.53	95.1296
1302.8	95.1313
1303.08	89.8474
1303.35	89.8405
1303.62	92.998
1303.9	91.9242
1304.17	103.535
1304.44	92.9768
1304.72	95.0878
1304.99	97.1974
1305.26	91.9054
1305.54	87.6656
1305.81	97.1431
1306.08	93.9548
1306.35	94.9857
1306.63	96.0205
1306.9	92.8471
1307.18	83.3542
1307.45	88.634
1307.72	90.7451
1308	88.6333
1308.27	75.9749
1308.54	89.69
1308.81	89.6836
1309.09	93.9065
1309.36	91.8104
1309.63	84.4366
1309.91	80.2268
1310.18	84.4547
1310.45	86.5621
1310.73	85.5002
1311	88.665
1311.27	88.6677
1311.55	86.5606
1311.82	89.7298
1312.09	81.292
1312.37	86.5835
1312.64	84.4834
1312.91	84.4882
1313.18	89.7628
1313.46	88.6918
1313.73	82.3535
1314	84.4561
1314.28	85.5044
1314.55	77.059
1314.82	80.2292
1315.09	80.2361
1315.37	85.5242
1315.64	82.3655
1315.91	85.5436
1316.18	81.3288
1316.46	85.549
1316.73	83.4302
1317	82.3695
1317.28	85.5343
1317.55	83.4209
1317.82	85.5443
1318.09	81.3263
1318.37	71.8229
1318.64	82.389
1318.91	79.2205
1319.18	78.1632
1319.46	85.5549
1319.73	83.4376
1320	84.4898
1320.28	81.3251
1320.55	81.325
1320.82	82.3759
1321.09	78.1378
1321.37	81.2872
1321.64	86.5416
1321.91	86.5131
1322.18	87.5516
1322.46	80.1413
1322.73	82.2389
1323	84.3355
1323.27	81.1584
1323.55	72.7074
1323.82	83.2587
1324.09	86.4246
1324.36	81.1526
1324.64	82.2034
1324.91	79.0403
1325.18	76.928
1325.45	84.3133
1325.73	75.8567
1326	81.09
1326.27	79.989
1326.54	73.6164
1326.81	82.0105
1327.09	84.1071
1327.36	83.0818
1327.63	85.2417
1327.9	74.7364
1328.18	85.2998
1328.45	77.9522
1328.72	72.7085
1328.99	82.2252
1329.27	76.9566
1329.54	82.2206
1329.81	74.8428
1330.08	78.0035
1330.35	82.2156
1330.63	82.2038
1330.9	80.0784
1331.17	81.1125
1331.44	78.979
1331.71	82.108
1331.99	82.0709
1332.26	74.6715
1332.53	83.0698
1332.8	81.9912
1333.07	77.7543
1333.35	78.7768
1333.62	81.9033
1333.89	81.8772
1334.16	78.7009
1334.43	93.3813
1334.71	74.456
1334.98	84.9338
1335.25	73.3703
1335.52	80.6999
1335.79	76.4871
1336.07	79.6192
1336.34	82.7509
1336.61	77.4944
1336.88	83.7735
1337.15	77.4726
1337.43	79.5605
1337.7	82.6971
1337.97	73.2544
1338.24	80.5695
1338.51	84.7399
1338.78	83.6789
1339.06	69.0027
1339.33	75.2767
1339.6	79.4616
1339.87	86.7933
1340.14	79.4667
1340.42	80.5144
1340.69	81.5636
1340.96	77.376
1341.23	74.2314
1341.5	76.3214
1341.77	81.5505
1342.04	81.5402
1342.32	84.6665
1342.59	75.2272
1342.86	87.7624
1343.13	81.4617
1343.4	75.1734
1343.67	80.3959
1343.95	81.4379
1344.22	84.5735
1344.49	81.4363
1344.76	80.3893
1345.03	86.6553
1345.3	78.2752
1345.58	71.9841
1345.85	79.2754
1346.12	79.2541
1346.39	76.0927
1346.66	75.0096
1346.93	84.3764
1347.2	78.0903
1347.47	83.2794
1347.75	76.9991
1348.02	83.2385
1348.29	76.9726
1348.56	84.2604
1348.83	82.1687
1349.1	76.9445
1349.37	82.138
1349.65	77.9542
1349.92	77.9387
1350.19	78.9646
1350.46	74.7852
1350.73	78.9337
1351	82.035
1351.27	79.9322
1351.54	86.159
1351.81	78.8562
1352.09	87.1677
1352.36	81.9659
1352.63	78.8544
1352.9	83.031
1353.17	86.1768
1353.44	83.0674
1353.71	85.22
1353.98	81.1284
1354.25	93.549
1354.53	84.0475
1354.8	81.8821
1355.07	80.851
1355.34	85.0131
1355.61	80.827
1355.88	82.8881
1356.15	90.1877
1356.42	86.0376
1356.69	77.7075
1356.96	83.9308
1357.24	89.1153
1357.51	92.2208
1357.78	93.246
1358.05	96.3448
1358.32	90.0988
1358.59	86.9678
1358.86	89.0271
1359.13	94.1951
1359.4	94.1757
1359.67	85.864
1359.94	93.1107
1360.22	87.9018
1360.49	85.8016
1360.76	97.1738
1361.03	90.9388
1361.3	98.1813
1361.57	92.9993
1361.84	90.923
1362.11	94.0238
1362.38	95.047
1362.65	91.9291
1362.92	103.309
1363.19	104.339
1363.46	104.345
1363.73	108.504
1364	108.516
1364.28	103.349
1364.55	116.813
1364.82	101.267
1365.09	106.434
1365.36	101.236
1365.63	103.283
1365.9	100.152
1366.17	106.337
1366.44	105.277
1366.71	102.148
1366.98	103.151
1367.25	97.9462
1367.52	108.265
1367.79	121.688
1368.06	125.837
1368.33	150.653
1368.6	226.122
1368.87	251.98
1369.15	235.452
1369.41	177.571
1369.68	153.8
1369.95	126.9
1370.23	116.546
1370.5	116.532
1370.77	102.033
1371.04	115.451
1371.31	113.362
1371.58	107.133
1371.85	107.096
1372.12	114.277
1372.39	118.358
1372.66	104.909
1372.93	115.19
1373.2	121.354
1373.47	124.429
1373.74	117.199
1374.01	125.429
1374.28	127.478
1374.55	124.377
1374.82	123.337
1375.09	131.568
1375.36	120.22
1375.63	123.314
1375.9	127.449
1376.17	133.626
1376.44	131.572
1376.71	136.687
1376.98	125.325
1377.25	140.723
1377.52	136.548
1377.79	147.884
1378.06	141.745
1378.33	129.443
1378.6	141.869
1378.87	148.131
1379.14	153.31
1379.41	158.458
1379.68	166.683
1379.95	176.966
1380.22	165.592
1380.49	173.761
1380.76	178.766
1381.03	194.114
1381.3	191.983
1381.57	198.185
1381.84	217.671
1382.11	234.014
1382.38	250.333
1382.65	263.577
1382.92	282.984
1383.19	298.267
1383.46	336.138
1383.73	386.29
1384	469.275
1384.27	544.049
1384.54	680.425
1384.81	845.563
1385.08	1146.2
1385.34	1561.96
1385.61	2301.44
1385.88	3414.76
1386.15	4951.47
1386.42	6481.11
1386.69	7108.94
1386.96	6477.92
1387.23	5031.62
1387.5	3344.45
1387.77	2122.11
1388.04	1427.23
1388.31	937.87
1388.58	715.902
1388.85	567.386
1389.12	462.39
1389.39	394.917
1389.66	335.394
1389.93	285.114
1390.2	263.46
1390.46	247.868
1390.73	236.497
1391	208.803
1391.27	195.392
1391.54	196.4
1391.81	186.133
1392.08	176.869
1392.35	164.531
1392.62	175.757
1392.89	158.321
1393.16	163.417
1393.43	157.255
1393.7	152.121
1393.97	148.012
1394.23	141.859
1394.5	145.941
1394.77	133.652
1395.04	137.738
1395.31	131.613
1395.58	118.328
1395.85	128.577
1396.12	120.394
1396.39	123.46
1396.66	134.707
1396.93	132.643
1397.2	122.392
1397.46	122.368
1397.73	115.184
1398	120.286
1398.27	119.261
1398.54	125.406
1398.81	116.212
1399.08	121.335
1399.35	115.202
1399.62	118.29
1399.89	119.326
1400.16	126.501
1400.42	125.475
1400.69	125.492
1400.96	116.307
1401.23	116.32
1401.5	121.435
1401.77	114.279
1402.04	123.495
1402.31	126.609
1402.58	126.68
1402.84	121.628
1403.11	125.786
1403.38	130.958
1403.65	139.19
1403.92	138.164
1404.19	138.135
1404.46	148.315
1404.73	144.232
1404.99	150.374
1405.26	163.691
1405.53	168.789
1405.8	177.986
1406.07	199.485
1406.34	207.653
1406.61	218.906
1406.87	249.636
1407.14	265.022
1407.41	300.917
1407.68	326.572
1407.95	360.423
1408.22	345.065
1408.49	354.313
1408.76	355.359
1409.02	313.341
1409.29	264.141
1409.56	225.187
1409.83	201.612
1410.1	180.081
1410.37	152.383
1410.63	146.199
1410.9	132.828
1411.17	127.661
1411.44	112.259
1411.71	116.337
1411.98	109.149
1412.25	102.998
1412.51	100.962
1412.78	97.9156
1413.05	91.823
1413.32	87.8253
1413.59	89.9331
1413.86	88.8362
1414.12	89.743
1414.39	86.6856
1414.66	81.612
1414.93	89.8628
1415.2	83.6963
1415.47	80.6184
1415.73	80.6179
1416	76.5126
1416.27	77.5449
1416.54	81.6587
1416.81	74.4769
1417.07	75.5109
1417.34	70.3829
1417.61	74.4999
1417.88	73.4795
1418.15	69.3727
1418.42	73.4834
1418.68	70.4028
1418.95	82.7373
1419.22	75.5437
1419.49	73.4889
1419.76	71.4249
1420.02	74.4928
1420.29	72.4225
1420.56	63.1646
1420.83	70.3385
1421.1	77.5087
1421.36	73.3877
1421.63	70.3011
1421.9	73.3836
1422.17	64.162
1422.44	72.3993
1422.7	74.4778
1422.97	68.3496
1423.24	68.4078
1423.51	67.4381
1423.77	72.4132
1424.04	70.2093
1424.31	75.355
1424.58	65.0359
1424.85	68.1091
1425.11	74.2769
1425.38	56.8937
1425.65	70.2339
1425.92	57.9167
1426.19	72.2984
1426.45	59.9823
1426.72	68.1758
1426.99	66.1064
1427.26	63.0118
1427.52	64.0172
1427.79	69.1119
1428.06	66.0159
1428.33	68.0521
1428.59	64.9752
1428.86	61.9035
1429.13	57.8105
1429.4	54.7423
1429.67	60.8927
1429.93	60.9014
1430.2	61.9382
1430.47	57.8546
1430.74	61.9664
1431	61.9845
1431.27	52.7787
1431.54	57.927
1431.81	61.0153
1432.07	62.041
1432.34	51.7666
1432.61	56.8831
1432.87	55.8476
1433.14	56.855
1433.41	57.8576
1433.68	55.7825
1433.95	57.8078
1434.21	58.8167
1434.48	53.6899
1434.75	55.7631
1435.01	56.7987
1435.28	49.6271
1435.55	60.8985
1435.82	56.7973
1436.08	55.769
1436.35	55.7645
1436.62	55.7596
1436.89	55.7534
1437.15	55.747
1437.42	52.6683
1437.69	52.6659
1437.95	54.7073
1438.22	50.6071
1438.49	51.6328
1438.76	57.7859
1439.02	53.6926
1439.29	53.6934
1439.56	54.7199
1439.82	56.7769
1440.09	43.4649
1440.36	51.6781
1440.63	52.7091
1440.89	55.7877
1441.16	52.7113
1441.43	48.6113
1441.69	50.6574
1441.96	52.6984
1442.23	51.6676
1442.49	54.7536
1442.76	52.7032
1443.03	52.713
1443.3	47.5776
1443.56	48.5936
1443.83	47.5604
1444.1	47.5545
1444.36	49.6019
1444.63	50.6292
1444.9	51.6684
1445.16	53.7317
1445.43	48.6179
1445.7	56.8205
1445.97	48.6071
1446.23	46.5503
1446.5	51.6739
1446.77	52.6946
1447.03	51.6639
1447.3	49.6078
1447.57	53.7033
1447.83	51.6449
1448.1	47.5379
1448.37	49.5869
1448.63	46.5186
1448.9	51.6562
1449.17	49.6071
1449.43	46.5284
1449.7	44.4722
1449.97	46.5162
1450.23	47.5327
1450.5	48.5489
1450.77	54.694
1451.03	47.5138
1451.3	49.5587
1451.57	51.6031
1451.83	49.5473
1452.1	48.5168
1452.37	48.5119
1452.63	44.4108
1452.9	52.6066
1453.17	43.3869
1453.43	46.465
1453.7	55.6918
1453.97	48.5175
1454.23	49.5378
1454.5	51.5834
1454.77	45.4341
1455.03	49.532
1455.3	39.2825
1455.56	42.3527
1455.83	45.4265
1456.1	44.4086
1456.36	45.4368
1456.63	41.3359
1456.9	48.5053
1457.16	50.5453
1457.43	44.3888
1457.7	47.4577
1457.96	45.4047
1458.23	42.3287
1458.49	47.4498
1458.76	47.4499
1459.03	44.3781
1459.29	48.4773
1459.56	42.3306
1459.82	45.4042
1460.09	43.3523
1460.36	45.3973
1460.62	40.2708
1460.89	43.3393
1461.16	48.4547
1461.42	38.206
1461.69	51.5118
1461.95	44.3362
1462.22	44.3275
1462.49	43.2947
1462.75	42.2614
1463.02	43.274
1463.28	42.2399
1463.55	43.2511
1463.82	45.2855
1464.08	43.238
1464.35	48.3642
1464.61	42.2468
1464.88	45.3317
1465.15	44.3282
1465.41	43.2692
1465.68	41.1452
1465.94	42.1303
1466.21	45.1864
1466.48	42.1371
1466.74	40.0905
1467.01	39.0511
1467.27	40.0647
1467.54	34.9664
1467.8	44.1445
1468.07	39.0396
1468.34	43.117
1468.6	44.1351
1468.87	38.0128
1469.13	38.0094
1469.4	43.1037
1469.67	45.1368
1469.93	39.0094
1470.2	40.0182
1470.46	36.9518
1470.73	38.9835
1470.99	39.9965
1471.26	39.9924
1471.53	41.0043
1471.79	40.9949
1472.06	43.0247
1472.32	42.0021
1472.59	43.0176
1472.85	33.8511
1473.12	44.0309
1473.39	38.9358
1473.65	39.9468
1473.92	39.9395
1474.18	38.9157
1474.45	41.9646
1474.71	45.0163
1474.98	38.9128
1475.24	41.9677
1475.51	36.8779
1475.78	41.9646
1476.04	41.9595
1476.31	39.9174
1476.57	36.8598
1476.84	40.9249
1477.1	41.9343
1477.37	45.9944
1477.63	39.8874
1477.9	40.9017
1478.16	43.9503
1478.43	41.9103
1478.69	40.8841
1478.96	37.8273
1479.22	37.8204
1479.49	37.8126
1479.76	37.8041
1480.02	38.8103
1480.29	36.7697
1480.55	36.7549
1480.82	34.713
1481.08	40.7931
1481.35	42.8174
1481.61	39.7653
1481.88	37.7388
1482.14	40.7879
1482.41	41.8092
1482.67	35.7262
1482.94	32.6849
1483.2	39.7905
1483.47	37.7635
1483.73	39.7958
1484	38.7793
1484.26	40.8076
1484.53	41.8046
1484.79	41.7796
1485.06	35.6524
1485.32	36.6138
1485.59	38.6175
1485.85	37.5749
1486.12	36.6499
1486.38	44.7665
1486.65	40.7275
1486.91	37.644
1487.18	42.7288
1487.44	40.7074
1487.71	39.6808
1487.97	37.6445
1488.24	39.6634
1488.5	39.6556
1488.77	38.6331
1489.03	36.598
1489.3	34.566
1489.56	40.6317
1489.83	41.6387
1490.09	41.6345
1490.36	39.6097
1490.62	35.5613
1490.89	39.6018
1491.15	40.6038
1491.42	38.5721
1491.68	34.523
1491.95	37.5532
1492.21	37.5518
1492.48	34.5191
1492.74	38.5608
1493	39.5685
1493.27	33.5003
1493.53	40.5755
1493.8	43.604
1494.06	36.5253
1494.33	32.4812
1494.59	34.504
1494.86	38.5497
1495.12	38.547
1495.39	37.5286
1495.65	38.5266
1495.92	38.5111
1496.18	32.4393
1496.45	37.4804
1496.71	37.4739
1496.97	37.4679
1497.24	36.4521
1497.5	36.4506
1497.77	44.5232
1498.03	32.4087
1498.3	39.4711
1498.56	37.4518
1498.82	33.4145
1499.09	35.433
1499.35	39.4706
1499.62	34.4251
1499.88	37.4554
1500.15	38.467
1500.41	35.4385
1500.68	38.4657
1500.94	38.4631
1501.2	40.4797
1501.47	41.4835
1501.73	36.4279
1502	34.406
1502.26	39.4494
1502.52	33.392
1502.79	42.4685
1503.05	39.4317
1503.32	39.4224
1503.58	35.3825
1503.85	37.3914
1504.11	35.3734
1504.37	40.4176
1504.64	37.3929
1504.9	43.4427
1505.17	39.4058
1505.43	37.3838
1505.7	37.3767
1505.96	36.3568
1506.22	37.3498
1506.49	39.3608
1506.75	38.3509
1507.02	39.3588
1507.28	33.3178
1507.54	40.3715
1507.81	37.349
1508.07	39.3628
1508.34	34.3207
1508.6	34.3175
1508.86	37.3398
1509.13	41.3705
1509.39	40.3623
1509.66	38.3452
1509.92	38.3438
1510.18	38.3469
1510.45	39.356
1510.71	37.3318
1510.98	34.3009
1511.24	36.3058
1511.5	37.3011
1511.77	38.2909
1512.03	41.2871
1512.29	37.2418
1512.56	39.2316
1512.82	36.1997
1513.08	37.1931
1513.35	37.1831
1513.61	35.1666
1513.88	38.1739
1514.14	36.1738
1514.4	37.1914
1514.67	37.1939
1514.93	39.1972
1515.2	38.1826
1515.46	35.159
1515.72	34.1449
1515.99	37.1431
1516.25	41.1428
1516.51	37.1211
1516.78	35.1106
1517.04	35.1064
1517.3	37.1081
1517.57	33.0953
1517.83	38.1079
1518.09	33.0959
1518.36	39.1183
1518.62	38.1163
1518.88	33.1028
1519.15	37.1159
1519.41	36.1149
1519.67	36.1166
1519.94	36.1172
1520.2	35.1118
1520.47	41.1265
1520.73	32.0942
1520.99	33.098
1521.26	37.1133
1521.52	36.1122
1521.78	35.1089
1522.05	34.1028
1522.31	32.0918
1522.57	36.0996
1522.84	39.1031
1523.1	39.0977
1523.36	36.0814
1523.62	36.069
1523.89	36.053
1524.15	33.0363
1524.41	36.0328
1524.68	34.0221
1524.94	33.0141
1525.2	33.0167
1525.47	35.0201
1525.73	37.0232
1525.99	36.0259
1526.26	37.0335
1526.52	36.0403
1526.78	32.0375
1527.05	38.0533
1527.31	33.0393
1527.57	34.0354
1527.84	35.0341
1528.1	40.0402
1528.36	37.0296
1528.63	34.0181
1528.89	33.0113
1529.15	35.0104
1529.41	34.0057
1529.68	37.0087
1529.94	36.0034
1530.2	36.9976
1530.47	35.9933
1530.73	32.9911
1530.99	35.0002
