#Acq. time (s)=	30
#Accumulations=	2
#Range (cm-¹)=	1200...2365
#Windows=	3
#Auto scanning=	Off
#Autofocus=	Off
#Macrospot=	Off
#AutoExposure=	Off
#Spike filter=	Multiple accum.
#Delay time (s)=	2
#Binning=	1
#Readout mode=	Signal
#DeNoise=	Off
#ICS correction=	On
#Dark correction=	Off
#Inst. Process=	Off
#Detector Gain=	Best Dynamic
#Detector ADC=	50 kHz HS
#Detector temperature (°C)=	-60.09
#Instrument=	LabRAM HR Evol
#Detector=	SIN-EM FIVIS
#Objective=	x100_VIS_LWD
#Grating=	1800 (450-850nm)
#ND Filter=	100%
#Laser=	532nm_Edge
#Hole=	49.98
#Temperature=	0
#Range=	Visible
#StageXY=	75x50mm Scan+
#StageZ=	Z motor
#X (µm)=	0
#Y (µm)=	0
#Z (µm)=	64.1
#Full time(mm:ss)=	3:19
#Project=	21_11_22
#Sample=	BU19w
#Site=	
#Title=	BU19w-D-FF2-FI10-V_1800 (450-850nm)_532nm_Edge_100%_x100_VIS_LWD_H50um_30sX2
#Remark=	
#Date=	22.11.2021 13:57
#Acquired=	22.11.2021 13:57:50
1202.84	61.7341
1203.12	61.7033
1203.4	57.3828
1203.67	57.3549
1203.95	60.5419
1204.23	58.3742
1204.51	53.0028
1204.78	56.2012
1205.06	50.8381
1205.34	60.4594
1205.62	64.7208
1205.9	60.4232
1206.17	62.5454
1206.45	53.9819
1206.73	61.4623
1207.01	60.3874
1207.29	58.2375
1207.56	59.2826
1207.84	56.0536
1208.12	56.034
1208.39	57.0798
1208.67	55.9941
1208.95	53.8387
1209.23	52.7507
1209.51	60.1951
1209.78	61.2424
1210.06	55.8973
1210.34	60.1441
1210.62	54.811
1210.89	62.2509
1211.17	54.7987
1211.45	62.2524
1211.72	56.9292
1212	53.7341
1212.28	55.8605
1212.56	57.9859
1212.84	57.9815
1213.11	55.8382
1213.39	57.946
1213.67	58.9833
1213.94	57.895
1214.22	58.9388
1214.5	52.547
1214.78	63.1508
1215.05	61.0114
1215.33	57.8122
1215.61	51.4305
1215.89	55.6676
1216.16	64.152
1216.44	51.4128
1216.72	54.5891
1216.99	59.8807
1217.27	54.5738
1217.55	55.6344
1217.83	56.691
1218.1	59.8671
1218.38	58.7946
1218.66	56.6637
1218.93	57.7071
1219.21	54.5059
1219.49	56.5984
1219.77	57.6278
1220.04	51.2511
1220.32	56.5145
1220.6	53.3176
1220.88	49.0721
1221.15	55.3907
1221.43	52.2074
1221.71	57.4754
1221.98	57.4657
1222.26	56.4068
1222.54	55.3555
1222.81	56.4173
1223.09	54.3114
1223.37	53.2532
1223.64	57.4716
1223.92	59.5721
1224.2	59.5607
1224.48	62.6971
1224.75	55.2616
1225.03	56.2774
1225.31	59.4022
1225.58	59.3479
1225.86	56.1472
1226.14	52.9842
1226.41	56.2549
1226.69	59.5456
1226.97	56.3459
1227.24	61.559
1227.52	58.3714
1227.8	64.6964
1228.07	67.8273
1228.35	60.3317
1228.63	66.6403
1228.9	69.7912
1229.18	65.5855
1229.46	63.4746
1229.73	68.7255
1230.01	75.0248
1230.29	71.8643
1230.56	73.9615
1230.84	67.6612
1231.12	71.8687
1231.39	80.28
1231.67	82.3919
1231.95	79.2528
1232.22	88.7181
1232.5	84.5201
1232.78	85.5811
1233.05	89.7939
1233.33	87.6902
1233.61	86.6275
1233.88	91.8688
1234.16	91.8497
1234.43	87.6158
1234.71	84.4328
1234.99	86.5015
1235.26	87.519
1235.54	82.2407
1235.82	75.9226
1236.09	80.1023
1236.37	79.0416
1236.65	80.0803
1236.92	69.5914
1237.2	69.5879
1237.47	68.5381
1237.75	67.4906
1238.03	65.3965
1238.3	69.5917
1238.58	58.0557
1238.85	64.3322
1239.13	62.2272
1239.41	58.0344
1239.68	67.4694
1239.96	65.3799
1240.24	61.1963
1240.51	58.0506
1240.79	61.194
1241.06	67.487
1241.34	62.2448
1241.62	61.1915
1241.89	62.2332
1242.17	58.0282
1242.45	58.0123
1242.72	64.2766
1243	62.1593
1243.27	60.054
1243.55	64.2354
1243.83	62.1402
1244.1	53.7651
1244.38	64.2263
1244.65	62.1299
1244.93	63.1702
1245.2	65.2406
1245.48	62.0862
1245.76	64.1732
1246.03	63.1293
1246.31	69.4091
1246.59	68.3591
1246.86	68.3551
1247.14	69.4006
1247.41	65.2048
1247.69	72.5049
1247.96	69.3518
1248.24	73.517
1248.51	79.7718
1248.79	76.6232
1249.07	75.5639
1249.34	73.4604
1249.62	77.622
1249.89	76.5611
1250.17	74.458
1250.45	73.4053
1250.72	74.4471
1251	81.7622
1251.27	81.7763
1251.55	82.8369
1251.82	77.6237
1252.1	77.6236
1252.38	79.7167
1252.65	77.628
1252.93	76.5791
1253.2	77.6251
1253.48	80.7628
1253.75	76.5959
1254.03	71.377
1254.3	74.5069
1254.58	77.6281
1254.86	74.4873
1255.13	69.2598
1255.41	69.2531
1255.68	67.1579
1255.96	64.0081
1256.23	73.3971
1256.51	67.1427
1256.78	68.1907
1257.06	67.1812
1257.33	66.1181
1257.61	66.1028
1257.88	59.8157
1258.16	62.9293
1258.44	58.7451
1258.71	67.0905
1258.99	57.7506
1259.26	67.2281
1259.54	58.9297
1259.81	61.9608
1260.09	63.9725
1260.36	60.7952
1260.64	63.987
1260.91	58.8136
1261.19	63.0449
1261.46	62.0468
1261.74	59.9126
1262.01	56.7588
1262.29	61.9827
1262.56	61.9791
1262.84	57.7855
1263.11	68.2322
1263.39	63.011
1263.66	65.1082
1263.94	66.1644
1264.21	61.9965
1264.49	67.2409
1264.76	62.0291
1265.04	65.1873
1265.31	61.0268
1265.59	52.6722
1265.86	57.9194
1266.14	60.0234
1266.41	65.2693
1266.69	54.7892
1266.96	54.7765
1267.24	62.0902
1267.51	57.8869
1267.79	62.0594
1268.06	57.8608
1268.34	59.9481
1268.61	58.8936
1268.89	58.8951
1269.16	66.2332
1269.44	55.7818
1269.71	61.0379
1269.99	57.9114
1270.26	66.3085
1270.54	58.9883
1270.81	59.003
1271.09	57.9691
1271.36	59.0274
1271.64	57.9813
1271.91	61.1254
1272.18	64.271
1272.46	57.9823
1272.74	55.8922
1273.01	60.0985
1273.28	54.8636
1273.56	60.1222
1273.83	62.2329
1274.11	64.3413
1274.38	61.2043
1274.66	59.1171
1274.93	59.1306
1275.21	57.0394
1275.48	63.3568
1275.76	59.168
1276.03	61.2804
1276.3	59.1872
1276.58	54.9756
1276.85	66.5412
1277.13	63.3766
1277.4	63.3722
1277.68	59.1693
1277.95	59.1728
1278.23	61.2902
1278.5	63.4147
1278.77	58.1611
1279.05	59.2107
1279.32	62.3727
1279.6	63.434
1279.87	61.3189
1280.15	59.1882
1280.42	60.1833
1280.69	61.2063
1280.97	59.1059
1281.24	70.6741
1281.52	62.415
1281.79	57.1567
1282.07	75.0737
1282.34	75.0361
1282.61	85.5345
1282.89	100.271
1283.16	126.62
1283.44	160.325
1283.71	193.981
1283.99	240.305
1284.26	229.764
1284.53	178.151
1284.81	142.333
1285.08	93.9057
1285.36	76.0131
1285.63	66.5429
1285.9	68.6509
1286.18	59.1866
1286.45	59.1964
1286.73	63.4183
1287	51.8453
1287.28	56.0677
1287.55	53.9614
1287.82	61.3275
1288.1	51.8436
1288.37	56.0548
1288.64	53.9469
1288.92	58.157
1289.19	52.89
1289.47	50.786
1289.74	45.5175
1290.01	51.8311
1290.29	48.6726
1290.56	49.7391
1290.84	51.8671
1291.11	51.888
1291.38	42.4056
1291.66	47.6769
1291.93	48.7282
1292.21	46.6242
1292.48	54.0276
1292.75	48.7778
1293.03	49.867
1293.3	49.8901
1293.57	55.1808
1293.85	52.0105
1294.12	48.8343
1294.4	44.5981
1294.67	53.0407
1294.94	53.0279
1295.22	56.1814
1295.49	54.0716
1295.76	46.6765
1296.04	49.8357
1296.31	48.772
1296.58	52.9859
1296.86	48.7611
1297.13	50.8793
1297.4	50.8844
1297.68	43.4942
1297.95	48.771
1298.22	49.824
1298.5	51.9368
1298.77	51.944
1299.04	55.1201
1299.32	49.8431
1299.59	46.675
1299.87	46.6738
1300.14	49.839
1300.41	47.7206
1300.69	46.6556
1300.96	40.3167
1301.23	43.4843
1301.51	51.9313
1301.78	46.6503
1302.05	48.756
1302.33	42.4129
1302.6	50.8459
1302.87	48.7234
1303.15	46.6006
1303.42	44.4807
1303.69	51.8577
1303.97	49.7468
1304.24	42.3677
1304.51	50.8063
1304.79	46.5859
1305.06	49.7483
1305.33	51.8606
1305.6	51.856
1305.88	46.5835
1306.15	48.7
1306.42	44.4857
1306.7	48.7125
1306.97	46.6063
1307.24	47.6599
1307.52	46.6004
1307.79	46.5993
1308.06	46.6004
1308.34	48.7129
1308.61	49.7697
1308.88	49.7723
1309.15	43.446
1309.43	48.7312
1309.7	47.6782
1309.97	55.0679
1310.25	45.5563
1310.52	44.4975
1310.79	48.7155
1311.06	50.8219
1311.34	46.5985
1311.61	53.9892
1311.88	45.5481
1312.16	40.2738
1312.43	47.6694
1312.7	51.8991
1312.98	49.7927
1313.25	49.7908
1313.52	42.3939
1313.79	41.335
1314.07	48.7254
1314.34	45.5562
1314.61	47.6735
1314.89	43.4524
1315.16	44.5109
1315.43	48.7377
1315.7	45.5687
1315.98	48.7376
1316.25	46.6226
1316.52	46.6199
1316.79	51.8992
1317.07	52.9578
1317.34	47.6757
1317.61	49.7855
1317.88	44.4966
1318.16	45.5422
1318.43	46.5844
1318.7	49.7346
1318.97	49.725
1319.25	46.5447
1319.52	43.373
1319.79	49.694
1320.06	44.4138
1320.34	50.728
1320.61	48.6248
1320.88	47.5717
1321.16	43.3542
1321.43	42.2972
1321.7	45.4608
1321.97	43.3489
1322.25	48.625
1322.52	46.5043
1322.79	42.2676
1323.06	46.4567
1323.33	43.2628
1323.61	42.1963
1323.88	45.3466
1324.15	44.3058
1324.42	48.5485
1324.7	45.4047
1324.97	43.3121
1325.24	45.4364
1325.51	45.4537
1325.79	44.4129
1326.06	48.6391
1326.33	49.6848
1326.6	48.6353
1326.87	47.5775
1327.15	46.518
1327.42	44.4018
1327.69	48.6115
1327.96	45.4362
1328.23	47.5301
1328.51	48.5652
1328.78	42.2232
1329.05	45.3657
1329.32	45.3522
1329.6	47.4421
1329.87	41.1137
1330.14	45.3041
1330.41	47.3906
1330.68	47.3751
1330.96	46.31
1331.23	48.3967
1331.5	52.583
1331.77	39.9722
1332.04	41.0122
1332.32	46.2499
1332.59	44.142
1332.86	45.1822
1333.13	46.2225
1333.4	49.3604
1333.67	45.1589
1333.95	44.1043
1334.22	45.1474
1334.49	49.3353
1334.76	43.0409
1335.03	45.1259
1335.3	45.1137
1335.58	48.2483
1335.85	50.3341
1336.12	45.0915
1336.39	46.1361
1336.66	41.9481
1336.94	49.2799
1337.21	39.8555
1337.48	48.2338
1337.75	47.1875
1338.02	44.0441
1338.29	45.0885
1338.57	46.1317
1338.84	44.0318
1339.11	46.1178
1339.38	41.9206
1339.65	50.2799
1339.93	45.035
1340.2	48.165
1340.47	43.9768
1340.74	41.8825
1341.01	47.1103
1341.28	45.0185
1341.55	46.0636
1341.82	48.1506
1342.1	45.0052
1342.37	46.0398
1342.64	40.7994
1342.91	44.967
1343.18	48.0847
1343.45	44.9287
1343.73	45.9558
1344	48.0278
1344.27	40.7111
1344.54	39.6559
1344.81	46.9447
1345.08	47.9798
1345.35	47.9746
1345.63	50.0544
1345.9	41.7099
1346.17	42.7432
1346.44	46.9004
1346.71	44.8079
1346.98	45.8401
1347.25	47.9132
1347.52	44.7809
1347.8	46.8505
1348.07	44.757
1348.34	46.8288
1348.61	47.8561
1348.88	49.9304
1349.15	42.6494
1349.42	45.7727
1349.69	45.7813
1349.96	44.7543
1350.24	43.7181
1350.51	42.7112
1350.78	40.6719
1351.05	46.8863
1351.32	43.693
1351.59	48.8363
1351.86	47.8017
1352.13	45.7286
1352.41	44.6736
1352.68	46.7389
1352.95	42.5966
1353.22	47.7979
1353.49	54.0185
1353.76	45.7026
1354.03	47.7749
1354.3	44.6539
1354.57	47.7624
1354.84	43.6012
1355.11	46.707
1355.39	47.7354
1355.66	47.7263
1355.93	46.6785
1356.2	53.9292
1356.47	42.5119
1356.74	47.6905
1357.01	50.7885
1357.28	42.4806
1357.55	47.6486
1357.82	45.5661
1358.09	40.3819
1358.36	47.631
1358.63	46.5928
1358.9	48.6607
1359.18	47.6188
1359.45	50.7191
1359.72	49.6778
1359.99	46.5686
1360.26	46.5702
1360.53	52.7905
1360.8	46.5824
1361.07	50.7306
1361.34	44.5148
1361.61	44.511
1361.88	44.5055
1362.15	49.6746
1362.42	49.6628
1362.69	51.7202
1362.97	47.5681
1363.24	49.6257
1363.51	49.6132
1363.78	50.6322
1364.05	43.3779
1364.32	46.4698
1364.59	50.598
1364.86	60.938
1365.13	49.5725
1365.4	48.5409
1365.67	51.6444
1365.94	51.6466
1366.21	48.5481
1366.48	57.8567
1366.75	49.5788
1367.02	53.7072
1367.29	53.7001
1367.56	50.5858
1367.83	50.5776
1368.1	55.7331
1368.37	56.7499
1368.64	57.7627
1368.91	59.8033
1369.18	64.9379
1369.45	61.8201
1369.72	57.6782
1369.99	49.4201
1370.26	58.6889
1370.54	54.5582
1370.81	55.582
1371.08	56.6067
1371.34	58.6624
1371.62	53.5064
1371.89	58.6523
1372.16	51.4335
1372.43	57.6145
1372.7	56.5908
1372.97	59.6791
1373.24	55.5618
1373.51	61.7271
1373.78	54.5031
1374.05	61.6907
1374.32	60.6321
1374.59	67.8418
1374.86	62.7108
1375.13	63.7639
1375.4	72.0357
1375.67	76.201
1375.94	70.0283
1376.21	76.2115
1376.48	72.0773
1376.75	80.3122
1377.02	73.082
1377.29	70.993
1377.56	75.049
1377.83	83.2445
1378.09	77.0363
1378.36	82.1945
1378.64	84.2308
1378.91	84.1911
1379.18	83.1204
1379.44	97.4609
1379.71	98.4516
1379.98	95.3332
1380.25	100.436
1380.52	98.3527
1380.79	101.411
1381.06	97.2927
1381.33	101.396
1381.6	100.378
1381.87	105.522
1382.14	92.2132
1382.41	107.643
1382.68	106.644
1382.95	99.4819
1383.22	96.4124
1383.49	100.541
1383.76	100.55
1384.03	98.4949
1384.3	91.2463
1384.57	104.386
1384.84	98.0682
1385.11	100.034
1385.38	104.235
1385.65	104.401
1385.92	103.502
1386.19	122.059
1386.45	156.973
1386.72	224.774
1386.99	338.661
1387.26	456.383
1387.53	435.652
1387.8	288.018
1388.07	176.167
1388.34	123.881
1388.61	95.1766
1388.88	86.9581
1389.15	78.7402
1389.42	74.625
1389.69	67.4441
1389.96	68.4575
1390.23	64.3541
1390.49	57.182
1390.76	69.4572
1391.03	61.2637
1391.3	60.2352
1391.57	56.1377
1391.84	62.2736
1392.11	53.0687
1392.38	56.1474
1392.65	61.2715
1392.92	60.2505
1393.19	52.0592
1393.46	53.0777
1393.73	52.0472
1393.99	55.1096
1394.26	54.0756
1394.53	57.1333
1394.8	54.0581
1395.07	55.0792
1395.34	49.9673
1395.61	52.0182
1395.88	46.906
1396.15	54.0697
1396.42	48.961
1396.68	57.1533
1396.95	55.111
1397.22	56.1337
1397.49	46.9272
1397.76	53.0813
1398.03	42.847
1398.3	45.9172
1398.57	51.042
1398.84	47.969
1399.11	49.0076
1399.38	51.0839
1399.64	45.9862
1399.91	52.1633
1400.18	53.2063
1400.45	47.0548
1400.72	49.1085
1400.99	50.1252
1401.26	45.9919
1401.53	48.0491
1401.79	53.1742
1402.06	48.0382
1402.33	47.0033
1402.6	51.0955
1402.87	42.8833
1403.14	43.9004
1403.41	47.995
1403.68	44.915
1403.94	49.0162
1404.21	49.0188
1404.48	51.0727
1404.75	49.0246
1405.02	52.1026
1405.29	43.9022
1405.56	50.0563
1405.82	44.9318
1406.09	46.9864
1406.36	49.0409
1406.63	49.0441
1406.9	50.072
1407.17	45.9689
1407.44	57.2414
1407.7	52.0983
1407.97	49.0058
1408.24	64.3655
1408.51	60.255
1408.78	68.442
1409.05	66.3889
1409.31	63.3233
1409.58	56.1656
1409.85	52.0951
1410.12	51.1313
1410.39	46.0306
1410.66	47.0258
1410.92	44.9053
1411.19	45.9381
1411.46	43.9157
1411.73	47.0186
1412	39.8279
1412.27	49.0687
1412.53	45.9882
1412.8	44.9619
1413.07	38.8041
1413.34	44.9683
1413.61	40.864
1413.88	43.9489
1414.14	44.9807
1414.41	36.7665
1414.68	47.0446
1414.95	42.9367
1415.22	39.8541
1415.48	42.9377
1415.75	44.9948
1416.02	42.939
1416.29	40.8841
1416.56	39.8517
1416.82	40.8711
1417.09	40.8619
1417.36	42.9077
1417.63	39.8176
1417.9	40.8348
1418.17	43.9056
1418.43	42.8741
1418.7	42.8754
1418.97	41.8586
1419.24	41.8728
1419.5	41.8856
1419.77	42.9352
1420.04	38.8549
1420.31	41.9797
1420.58	41.8983
1420.84	48.9624
1421.11	44.8817
1421.38	40.7392
1421.65	41.7571
1421.92	41.7727
1422.18	40.7695
1422.45	42.8348
1422.72	44.872
1422.99	43.8642
1423.26	41.8086
1423.52	40.7754
1423.79	41.7893
1424.06	43.8275
1424.33	41.7641
1424.59	43.7957
1424.86	41.7314
1425.13	37.6278
1425.4	42.7437
1425.66	47.8629
1425.93	44.7931
1426.2	41.724
1426.47	40.7039
1426.73	39.6851
1427	41.742
1427.27	47.9012
1427.54	36.6358
1427.81	42.7979
1428.07	43.8417
1428.34	39.7523
1428.61	40.7853
1428.88	39.7589
1429.14	40.7776
1429.41	42.8191
1429.68	43.8373
1429.94	39.7219
1430.21	37.6557
1430.48	46.8616
1430.75	40.6961
1431.02	43.757
1431.28	40.6795
1431.55	40.6957
1431.82	42.7549
1432.08	41.7313
1432.35	46.8547
1432.62	41.7294
1432.89	41.7268
1433.15	38.6497
1433.42	42.7445
1433.69	44.7888
1433.96	45.8081
1434.22	43.7548
1434.49	38.6314
1434.76	42.7233
1435.02	40.6719
1435.29	41.6971
1435.56	34.5324
1435.83	45.8038
1436.09	42.7313
1436.36	38.6348
1436.63	35.5658
1436.89	39.6727
1437.16	42.7589
1437.43	36.612
1437.7	36.6137
1437.96	35.5882
1438.23	40.717
1438.5	39.6881
1438.77	38.6556
1439.03	41.7267
1439.3	47.8866
1439.57	41.7347
1439.83	40.717
1440.1	41.7372
1440.37	39.6785
1440.63	40.6972
1440.9	40.6922
1441.17	38.6395
1441.43	41.716
1441.7	37.6258
1441.97	37.634
1442.24	37.6467
1442.5	40.7207
1442.77	36.6126
1443.03	39.6861
1443.3	39.682
1443.57	39.6782
1443.84	41.7255
1444.1	43.7726
1444.37	37.615
1444.64	37.6094
1444.9	39.655
1445.17	40.6787
1445.44	37.6088
1445.7	41.7195
1445.97	40.696
1446.24	39.6692
1446.5	41.7164
1446.77	35.5575
1447.04	39.6521
1447.3	39.6445
1447.57	38.6153
1447.84	39.6365
1448.1	39.6326
1448.37	42.7029
1448.64	34.5
1448.9	37.5697
1449.17	39.6151
1449.44	39.6125
1449.7	41.6613
1449.97	37.5641
1450.24	43.7159
1450.5	42.6948
1450.77	38.5954
1451.04	39.6167
1451.3	40.6383
1451.57	38.5881
1451.83	43.7111
1452.1	41.6598
1452.37	41.6562
1452.63	36.5325
1452.9	38.588
1453.17	41.666
1453.43	35.5157
1453.7	35.5122
1453.97	45.7525
1454.23	42.6704
1454.5	39.5929
1454.77	39.5896
1455.03	39.587
1455.3	38.5621
1455.56	41.6354
1455.83	40.6126
1456.1	36.5157
1456.36	40.6145
1456.63	37.541
1456.9	38.5634
1457.16	44.7072
1457.43	39.5811
1457.69	39.577
1457.96	35.475
1458.23	35.4695
1458.49	37.5121
1458.76	33.4104
1459.02	40.5698
1459.29	38.5146
1459.56	38.5059
1459.82	40.5429
1460.09	41.5556
1460.36	41.5448
1460.62	40.5125
1460.89	35.3976
1461.15	43.5885
1461.42	40.5391
1461.69	42.6002
1461.95	41.5949
1462.22	41.5699
1462.48	39.446
1462.75	34.3082
1463.02	37.3632
1463.28	35.3331
1463.55	43.4961
1463.81	38.3746
1464.08	38.367
1464.35	36.3301
1464.61	36.327
1464.88	39.3839
1465.14	38.3611
1465.41	37.3395
1465.67	36.3179
1465.94	41.415
1466.21	39.3703
1466.47	40.3844
1466.74	36.2976
1467	37.3074
1467.27	40.3567
1467.54	39.3312
1467.8	39.3257
1468.07	40.3406
1468.33	39.3159
1468.6	39.3072
1468.86	36.2456
1469.13	33.1871
1469.39	36.2397
1469.66	32.1649
1469.93	41.327
1470.19	36.2325
1470.46	37.2444
1470.72	36.22
1470.99	36.2147
1471.25	36.211
1471.52	36.2099
1471.79	40.2832
1472.05	34.1784
1472.32	37.2315
1472.58	36.2118
1472.85	35.19
1473.11	41.29
1473.38	36.1975
1473.64	42.2979
1473.91	37.2042
1474.17	37.197
1474.44	39.2268
1474.71	39.2245
1474.97	36.1718
1475.24	44.3017
1475.5	40.2257
1475.77	39.2022
1476.03	37.1628
1476.3	32.0746
1476.56	38.1636
1476.83	36.1229
1477.09	44.2389
1477.36	41.1767
1477.62	42.1786
1477.89	41.1543
1478.15	40.1348
1478.42	42.1561
1478.68	43.1731
1478.95	39.1203
1479.22	33.0373
1479.48	38.1188
1479.75	40.1546
1480.01	40.154
1480.28	40.1579
1480.54	39.1444
1480.81	38.1283
1481.07	37.1109
1481.34	38.1105
1481.6	40.1177
1481.87	31.9665
1482.13	39.0058
1482.4	35.9507
1482.66	42.9931
1482.93	42.0808
1483.19	42.093
1483.46	39.0699
1483.72	36.9989
1483.99	42.0837
1484.25	41.0771
1484.52	41.0637
1484.78	37.0015
1485.05	36.9954
1485.31	36.9886
1485.58	37.9918
1485.84	38.9937
1486.11	35.9494
1486.37	39.9918
1486.64	37.9639
1486.9	37.9603
1487.17	40.9941
1487.43	37.9579
1487.7	40.9871
1487.96	37.9439
1488.22	39.9576
1488.49	38.9417
1488.75	36.9169
1489.02	37.9268
1489.28	48.0383
1489.55	32.8706
1489.81	35.9008
1490.08	41.9642
1490.34	40.9525
1490.61	36.9051
1490.87	40.9461
1491.14	36.9023
1491.4	33.871
1491.67	37.9173
1491.93	35.8932
1492.19	38.9191
1492.46	36.8858
1492.72	38.8916
1492.99	41.9087
1493.25	37.8612
1493.52	42.9027
1493.78	41.8872
1494.05	40.8709
1494.31	37.8417
1494.58	37.8406
1494.84	37.8375
1495.1	37.8356
1495.37	42.8811
1495.63	36.8258
1495.9	39.8539
1496.16	36.8268
1496.43	41.8752
1496.69	35.8213
1496.96	37.8427
1497.22	39.8625
1497.48	37.8422
1497.75	38.8495
1498.01	45.9142
1498.28	38.8427
1498.54	37.8246
1498.81	42.8671
1499.07	38.8284
1499.34	36.8078
1499.6	39.8306
1499.86	32.7596
1500.13	34.769
1500.39	36.7812
1500.66	43.8314
1500.92	40.8051
1501.18	36.7747
1501.45	39.8009
1501.71	39.8004
1501.98	40.8062
1502.24	37.7762
1502.5	38.7777
1502.77	32.7188
1503.03	38.7506
1503.3	36.732
1503.56	34.7151
1503.83	42.775
1504.09	37.7427
1504.35	37.7433
1504.62	37.7442
1504.88	33.7123
1505.15	39.7549
1505.41	39.7516
1505.67	43.7818
1505.94	40.7597
1506.2	39.7519
1506.47	40.7581
1506.73	37.734
1506.99	39.7525
1507.26	38.7472
1507.52	33.7006
1507.78	39.7378
1508.05	37.7131
1508.31	38.7085
1508.58	39.6988
1508.84	38.6706
1509.1	39.6546
1509.37	43.6539
1509.63	37.6065
1509.9	41.6128
1510.16	32.5653
1510.42	33.5618
1510.69	35.5655
1510.95	41.5966
1511.21	40.6081
1511.48	38.6027
1511.74	42.6152
1512.01	40.5963
1512.27	36.5684
1512.53	43.5841
1512.8	40.5596
1513.06	34.5277
1513.32	38.5307
1513.59	38.5259
1513.85	39.5245
1514.11	39.521
1514.38	42.5268
1514.64	38.516
1514.9	39.5206
1515.17	42.5355
1515.43	41.5343
1515.7	35.5183
1515.96	33.5134
1516.22	35.5218
1516.49	41.5433
1516.75	33.5181
1517.01	39.5362
1517.28	39.5318
1517.54	39.5281
1517.8	35.5166
1518.07	39.5324
1518.33	41.5419
1518.59	37.5289
1518.86	36.5232
1519.12	39.5289
1519.38	33.5045
1519.65	34.5026
1519.91	39.5128
1520.17	41.511
1520.44	37.4876
1520.7	33.4633
1520.96	35.4568
1521.23	41.458
1521.49	36.4424
1521.75	35.4342
1522.02	38.4414
1522.28	38.4425
1522.54	39.4445
1522.81	48.4642
1523.07	41.4596
1523.33	38.4636
1523.59	38.4709
1523.86	39.4758
1524.12	36.467
1524.38	38.4652
1524.65	40.4662
1524.91	34.4493
1525.17	37.4516
1525.44	46.4632
1525.7	34.4357
1525.96	38.4384
1526.23	39.4371
1526.49	41.4389
1526.75	39.4322
1527.02	39.4247
1527.28	34.415
1527.54	38.423
1527.8	38.4301
1528.07	42.4448
1528.33	42.4507
1528.59	38.4428
1528.86	39.4411
1529.12	34.4315
1529.38	40.4369
1529.64	41.4427
1529.91	36.4416
1530.17	40.4646
