#Acq. time (s)=	30
#Accumulations=	2
#Range (cm-¹)=	1200...2365
#Windows=	3
#Auto scanning=	Off
#Autofocus=	Off
#Macrospot=	Off
#AutoExposure=	Off
#Spike filter=	Multiple accum.
#Delay time (s)=	2
#Binning=	1
#Readout mode=	Signal
#DeNoise=	Off
#ICS correction=	On
#Dark correction=	Off
#Inst. Process=	Off
#Detector Gain=	Best Dynamic
#Detector ADC=	50 kHz HS
#Detector temperature (°C)=	-60.09
#Instrument=	LabRAM HR Evol
#Detector=	SIN-EM FIVIS
#Objective=	x50_VIS_LWD
#Grating=	1800 (450-850nm)
#ND Filter=	100%
#Laser=	532nm_Edge
#Hole=	100.021
#Temperature=	0
#Range=	Visible
#StageXY=	75x50mm Scan+
#StageZ=	Z motor
#X (µm)=	0
#Y (µm)=	0
#Z (µm)=	-10.1
#Full time(mm:ss)=	3:23
#Project=	21_11_26
#Sample=	BU19(2)w
#Site=	
#Title=	BU19(2)w-A-FF2b-FI03-V_1800 (450-850nm)_532nm_Edge_100%_x50_VIS_LWD_H100um_30sX2
#Remark=	
#Date=	26.11.2021 14:57
#Acquired=	26.11.2021 14:57:04
1202.72	93.0237
1203	95.3101
1203.28	89.953
1203.56	97.434
1203.84	99.5091
1204.11	85.4795
1204.39	87.5938
1204.67	88.6707
1204.95	86.5288
1205.23	91.8844
1205.5	90.7727
1205.78	95.0294
1206.06	89.6151
1206.34	87.4239
1206.61	98.1061
1206.89	85.1934
1207.17	89.437
1207.45	92.6135
1207.73	86.1627
1208	87.2103
1208.28	89.3348
1208.56	88.2441
1208.84	81.7962
1209.11	79.6325
1209.39	79.6097
1209.67	83.8745
1209.95	84.9381
1210.23	79.5831
1210.5	83.84
1210.78	84.8712
1211.06	82.6992
1211.34	80.5352
1211.61	84.7713
1211.89	80.4762
1212.17	77.2424
1212.45	80.4086
1212.72	81.4503
1213	84.6208
1213.28	80.3327
1213.56	86.7039
1213.83	78.1724
1214.11	90.9284
1214.39	84.5427
1214.67	76.0265
1214.94	76.0253
1215.22	82.4103
1215.5	74.9526
1215.78	80.2694
1216.05	67.487
1216.33	81.302
1216.61	81.2708
1216.89	85.4869
1217.16	79.073
1217.44	79.0465
1217.72	72.6477
1218	71.5625
1218.27	83.2229
1218.55	77.8945
1218.83	83.1824
1219.1	81.048
1219.38	85.2846
1219.66	77.8473
1219.94	77.8353
1220.21	75.698
1220.49	76.7539
1220.77	75.6913
1221.04	78.8667
1221.32	76.7355
1221.6	69.2975
1221.88	68.2227
1222.15	72.4399
1222.43	71.35
1222.71	71.315
1222.98	86.0943
1223.26	64.8937
1223.54	75.4358
1223.81	75.4022
1224.09	71.1472
1224.37	75.3447
1224.65	79.5476
1224.92	72.1399
1225.2	80.5728
1225.48	70.0125
1225.76	79.5202
1226.03	79.5264
1226.31	68.975
1226.59	78.4719
1226.86	82.6872
1227.14	75.28
1227.42	74.2094
1227.69	72.059
1227.97	74.0952
1228.25	72.9948
1228.52	78.214
1228.8	72.8792
1229.08	74.9229
1229.35	75.9653
1229.63	74.0447
1229.91	72.0892
1230.18	80.4556
1230.46	65.6267
1230.74	74.0269
1231.01	76.1395
1231.29	77.145
1231.57	72.7883
1231.84	77.0027
1232.12	73.8465
1232.4	75.9433
1232.67	73.8307
1232.95	64.3709
1233.23	74.8707
1233.5	70.6593
1233.78	70.6552
1234.06	75.9094
1234.33	78.0153
1234.61	68.5645
1234.89	68.5723
1235.16	72.7856
1235.44	73.8403
1235.71	67.5377
1235.99	69.6465
1236.27	70.7014
1236.54	78.0578
1236.82	71.7382
1237.1	75.929
1237.37	78.0119
1237.65	75.8822
1237.93	77.953
1238.2	80.0224
1238.48	78.9418
1238.76	71.5679
1239.03	82.0331
1239.31	79.9195
1239.58	71.519
1239.86	80.944
1240.14	71.5024
1240.41	74.6423
1240.69	74.6398
1240.97	73.5914
1241.24	70.4482
1241.52	74.6418
1241.79	76.7293
1242.07	70.4249
1242.35	73.5583
1242.62	72.5095
1242.9	76.7037
1243.18	72.5198
1243.45	73.5755
1243.73	68.331
1244	78.812
1244.28	78.8151
1244.56	76.7152
1244.83	77.7562
1245.11	75.65
1245.39	79.823
1245.66	64.0856
1245.94	78.7233
1246.21	79.7418
1246.49	79.7282
1246.76	81.8131
1247.04	77.6244
1247.32	80.7607
1247.59	75.5185
1247.87	77.6079
1248.14	76.5508
1248.42	90.1193
1248.7	74.4111
1248.97	73.3594
1249.25	73.3616
1249.52	79.6408
1249.8	72.3118
1250.08	78.5825
1250.35	78.5811
1250.63	78.5624
1250.9	74.3581
1251.18	80.6102
1251.45	76.4122
1251.73	69.083
1252.01	82.6486
1252.28	83.6756
1252.56	84.7021
1252.83	77.3759
1253.11	79.4448
1253.39	79.4273
1253.66	85.6783
1253.94	80.4589
1254.21	78.3822
1254.49	82.5704
1254.76	83.6302
1255.04	81.5468
1255.31	84.6771
1255.59	83.6373
1255.87	78.4137
1256.14	80.4961
1256.42	79.4533
1256.69	84.6791
1256.97	98.2678
1257.24	82.6021
1257.52	90.9515
1257.79	93.0249
1258.07	90.9259
1258.35	84.6517
1258.62	83.5982
1258.9	91.9383
1259.17	89.8269
1259.45	100.259
1259.72	84.6116
1260	99.2374
1260.27	97.1875
1260.55	107.602
1260.82	110.705
1261.1	109.619
1261.37	122.109
1261.65	120.001
1261.92	141.923
1262.2	141.003
1262.48	144.323
1262.75	149.643
1263.02	152.528
1263.3	145.04
1263.58	148.099
1263.85	134.673
1264.13	130.596
1264.4	116.08
1264.68	118.228
1264.95	110.834
1265.23	108.714
1265.5	107.666
1265.78	99.2943
1266.05	97.1842
1266.33	102.406
1266.6	91.9616
1266.88	86.7464
1267.15	93.0322
1267.43	90.9606
1267.7	92.0287
1267.98	94.1456
1268.25	91.0352
1268.53	88.9798
1268.8	92.152
1269.08	89.0255
1269.35	91.1331
1269.63	90.0947
1269.9	93.2302
1270.18	87.9699
1270.45	97.3653
1270.73	76.403
1271	86.8494
1271.28	88.9252
1271.55	88.917
1271.83	92.0419
1272.1	91.0003
1272.38	92.0659
1272.65	92.0899
1272.93	87.9338
1273.2	81.6689
1273.47	87.9757
1273.75	95.3344
1274.03	91.1637
1274.3	90.137
1274.57	89.1009
1274.85	91.2009
1275.12	93.2927
1275.4	95.3888
1275.67	89.103
1275.95	93.3123
1276.22	109.067
1276.5	98.5953
1276.77	87.063
1277.05	107.028
1277.32	95.4894
1277.6	101.814
1277.87	97.6335
1278.14	106.062
1278.42	116.593
1278.69	117.664
1278.97	130.316
1279.24	127.179
1279.52	129.302
1279.79	160.851
1280.07	174.511
1280.34	204.988
1280.61	248.098
1280.89	292.29
1281.16	361.741
1281.44	497.557
1281.71	688.209
1281.99	848.3
1282.26	1112.48
1282.53	1295.76
1282.81	1418.03
1283.08	1449.37
1283.36	1358.18
1283.63	1154.1
1283.91	911.99
1284.18	666.079
1284.45	481.39
1284.73	362.281
1285	280.154
1285.28	216.924
1285.55	192.593
1285.83	172.521
1286.1	151.465
1286.37	133.593
1286.65	127.271
1286.92	121.981
1287.2	116.713
1287.47	109.334
1287.75	111.421
1288.02	104.032
1288.29	105.071
1288.57	94.5443
1288.84	100.859
1289.12	107.179
1289.39	96.6669
1289.66	90.3654
1289.94	88.274
1290.21	94.6099
1290.49	89.3572
1290.76	89.3547
1291.03	89.3428
1291.31	74.5904
1291.58	95.6516
1291.86	88.276
1292.13	89.3238
1292.4	81.9502
1292.68	88.273
1292.95	73.521
1293.22	87.2036
1293.5	82.9933
1293.77	86.179
1294.05	74.6193
1294.32	89.4108
1294.59	79.9285
1294.87	84.1448
1295.14	84.1368
1295.42	80.986
1295.69	73.6327
1295.96	80.0052
1296.24	86.3994
1296.51	80.0922
1296.79	74.8137
1297.06	81.1557
1297.33	80.0879
1297.61	71.6181
1297.88	71.6014
1298.15	78.9768
1298.43	77.8978
1298.7	85.2978
1298.97	74.7285
1299.25	78.9375
1299.52	72.5902
1299.79	76.7987
1300.07	79.9624
1300.34	78.9188
1300.62	71.5339
1300.89	69.4221
1301.16	71.5284
1301.44	77.8585
1301.71	79.9721
1301.98	78.9276
1302.25	73.657
1302.53	71.5487
1302.8	86.3374
1303.08	75.771
1303.35	66.2577
1303.62	69.4167
1303.9	69.402
1304.17	69.3975
1304.44	74.6767
1304.72	69.3951
1304.99	74.6718
1305.26	71.4931
1305.54	71.4784
1305.81	71.4599
1306.08	75.6624
1306.35	70.3672
1306.63	70.3511
1306.9	69.2881
1307.18	73.5043
1307.45	62.9617
1307.72	71.3994
1308	67.1775
1308.27	65.0654
1308.54	72.4504
1308.81	69.2798
1309.09	66.1172
1309.36	68.2355
1309.63	61.9126
1309.91	65.0854
1310.18	71.4216
1310.45	69.307
1310.73	62.9689
1311	65.0774
1311.27	66.1334
1311.55	69.301
1311.82	75.6348
1312.09	65.0838
1312.37	58.7589
1312.64	71.4358
1312.91	65.1031
1313.18	73.5453
1313.46	58.7514
1313.73	68.2484
1314	66.1289
1314.28	64.0109
1314.55	60.8421
1314.82	70.344
1315.09	69.2933
1315.37	66.1325
1315.64	72.4741
1315.91	61.9207
1316.18	70.3767
1316.46	65.0907
1316.73	65.0844
1317	69.3039
1317.28	66.1317
1317.55	67.1856
1317.82	71.4181
1318.09	66.1415
1318.37	72.482
1318.64	60.8621
1318.91	66.1438
1319.18	60.8596
1319.46	67.1944
1319.73	64.0204
1320	61.9032
1320.28	67.1875
1320.55	66.1299
1320.82	56.6165
1321.09	62.9436
1321.37	68.2074
1321.64	69.2415
1321.91	60.7742
1322.18	61.8162
1322.46	63.9063
1322.73	64.9502
1323	63.8843
1323.27	54.3824
1323.55	63.8581
1323.82	65.9722
1324.09	69.1364
1324.36	60.6998
1324.64	71.2401
1324.91	58.5858
1325.18	67.0173
1325.45	65.9651
1325.73	62.7832
1326	62.7525
1326.27	64.8202
1326.54	65.8239
1326.81	65.8024
1327.09	65.7952
1327.36	64.7629
1327.63	58.4855
1327.9	56.3975
1328.18	66.9537
1328.45	63.8151
1328.72	62.7836
1328.99	64.9116
1329.27	71.2461
1329.54	58.5758
1329.81	64.9103
1330.08	64.9054
1330.35	67.0078
1330.63	61.7229
1330.9	65.9277
1331.17	63.8011
1331.44	66.9418
1331.71	64.8062
1331.99	59.5095
1332.26	62.645
1332.53	64.7303
1332.8	56.2906
1333.07	63.6318
1333.35	61.5037
1333.62	62.5324
1333.89	66.7144
1334.16	56.1876
1334.43	60.3706
1334.71	69.8021
1334.98	70.8325
1335.25	66.6174
1335.52	59.2571
1335.79	61.3419
1336.07	67.6224
1336.34	66.56
1336.61	62.3535
1336.88	64.4397
1337.15	60.2367
1337.43	60.2288
1337.7	67.5585
1337.97	62.3087
1338.24	64.3865
1338.51	63.3218
1338.78	61.2155
1339.06	63.2975
1339.33	60.147
1339.6	67.4727
1339.87	67.4731
1340.14	58.0501
1340.42	62.2381
1340.69	64.3328
1340.96	61.191
1341.23	65.3766
1341.5	60.1355
1341.77	63.2704
1342.04	64.3082
1342.32	66.3893
1342.59	63.2328
1342.86	64.26
1343.13	65.2869
1343.4	65.2756
1343.67	65.2684
1343.95	65.2641
1344.22	62.1239
1344.49	60.0312
1344.76	63.1666
1345.03	60.0213
1345.3	63.146
1345.58	65.2202
1345.85	65.1972
1346.12	65.1784
1346.39	67.2426
1346.66	61.9871
1346.93	64.052
1347.2	59.8573
1347.47	65.0509
1347.75	55.6466
1348.02	66.0587
1348.29	62.921
1348.56	62.9132
1348.83	64.9908
1349.1	67.0623
1349.37	58.713
1349.65	64.9489
1349.92	72.2246
1350.19	67.0031
1350.46	69.071
1350.73	64.8926
1351	59.6712
1351.27	63.8152
1351.54	65.8828
1351.81	64.8236
1352.09	66.8961
1352.36	54.4149
1352.63	61.6988
1352.9	64.8307
1353.17	65.8891
1353.44	61.7349
1353.71	72.2013
1353.98	61.8421
1354.25	62.8225
1354.53	66.8848
1354.8	66.8132
1355.07	57.4672
1355.34	70.9786
1355.61	62.6412
1355.88	67.8203
1356.15	65.7636
1356.42	65.7667
1356.69	66.789
1356.96	73.0124
1357.24	59.502
1357.51	57.4169
1357.78	71.9442
1358.05	65.7015
1358.32	69.84
1358.59	63.5979
1358.86	62.5472
1359.13	66.682
1359.4	72.8903
1359.67	72.8776
1359.94	65.6071
1360.22	68.6979
1360.49	69.7116
1360.76	65.5452
1361.03	64.4946
1361.3	63.4513
1361.57	72.7707
1361.84	62.4077
1362.11	70.6879
1362.38	68.606
1362.65	71.703
1362.92	70.6583
1363.19	81.0075
1363.46	71.6914
1363.73	88.2718
1364	74.816
1364.28	81.0386
1364.55	77.928
1364.82	77.9206
1365.09	74.8029
1365.36	73.7517
1365.63	79.9447
1365.9	70.6079
1366.17	66.4503
1366.44	72.6405
1366.71	73.6554
1366.98	74.6658
1367.25	70.5027
1367.52	80.8247
1367.79	80.8146
1368.06	77.7225
1368.33	93.2312
1368.6	117.01
1368.87	137.691
1369.15	126.325
1369.41	109.791
1369.68	90.15
1369.95	88.0692
1370.23	75.6518
1370.5	76.6746
1370.77	72.5187
1371.04	73.5403
1371.31	76.6236
1371.58	77.6326
1371.85	78.6368
1372.12	73.443
1372.39	81.6655
1372.66	76.4781
1372.93	85.7346
1373.2	73.3477
1373.47	80.5506
1373.74	78.4771
1374.01	86.7105
1374.28	79.4883
1374.55	80.5107
1374.82	82.5638
1375.09	73.2836
1375.36	78.4223
1375.63	87.6941
1375.9	81.5218
1376.17	79.4573
1376.44	91.8227
1376.71	86.6469
1376.98	88.6829
1377.25	84.5334
1377.52	89.6407
1377.79	88.6209
1378.06	83.4949
1378.33	85.5858
1378.6	97.9899
1378.87	86.703
1379.14	92.9017
1379.41	105.268
1379.68	88.7583
1379.95	103.173
1380.22	101.089
1380.49	104.133
1380.76	103.017
1381.03	105.024
1381.3	110.125
1381.57	109.112
1381.84	113.195
1382.11	117.251
1382.38	124.381
1382.65	143.837
1382.92	135.571
1383.19	150.908
1383.46	167.277
1383.73	195.941
1384	203.082
1384.27	235.858
1384.54	283.025
1384.81	361.999
1385.08	457.437
1385.34	615.536
1385.61	857.96
1385.88	1275.97
1386.15	1876.87
1386.42	2590.78
1386.69	3203.43
1386.96	3275.64
1387.23	2653.14
1387.5	1818.69
1387.77	1144.23
1388.04	715.862
1388.31	488.554
1388.58	372.477
1388.85	287.993
1389.12	242.17
1389.39	204.332
1389.66	176.623
1389.93	160.212
1390.2	140.651
1390.46	137.461
1390.73	135.358
1391	129.199
1391.27	121.969
1391.54	112.733
1391.81	109.646
1392.08	99.3734
1392.35	101.394
1392.62	102.393
1392.89	99.3019
1393.16	91.0961
1393.43	90.0598
1393.7	86.978
1393.97	86.9678
1394.23	86.9586
1394.5	87.9736
1394.77	95.1286
1395.04	82.8445
1395.31	83.8748
1395.58	76.7226
1395.85	82.8715
1396.12	82.8735
1396.39	93.105
1396.66	86.9539
1396.93	77.7306
1397.2	77.7184
1397.46	78.7247
1397.73	80.7537
1398	80.7438
1398.27	72.5584
1398.54	73.5842
1398.81	82.7981
1399.08	75.6404
1399.35	77.6887
1399.62	78.7234
1399.89	82.8238
1400.16	75.6651
1400.42	74.6388
1400.69	81.8131
1400.96	77.7363
1401.23	79.7917
1401.5	80.8107
1401.77	81.8427
1402.04	71.5988
1402.31	78.7928
1402.58	81.9112
1402.84	76.8317
1403.11	80.9687
1403.38	80.993
1403.65	87.1634
1403.92	85.109
1404.19	88.1687
1404.46	87.0906
1404.73	91.2057
1404.99	96.3253
1405.26	82.9762
1405.53	99.3697
1405.8	103.451
1406.07	113.683
1406.34	111.613
1406.61	127.999
1406.87	135.162
1407.14	148.491
1407.41	152.6
1407.68	179.266
1407.95	186.451
1408.22	206.967
1408.49	205.952
1408.76	193.657
1409.02	173.161
1409.29	160.868
1409.56	142.417
1409.83	120.886
1410.1	112.685
1410.37	102.425
1410.63	90.0953
1410.9	80.8402
1411.17	83.8879
1411.44	79.7671
1411.71	78.7266
1411.98	68.4692
1412.25	71.5381
1412.51	72.5711
1412.78	64.3911
1413.05	65.4558
1413.32	67.5873
1413.59	71.737
1413.86	64.4927
1414.12	63.3787
1414.39	66.4677
1414.66	65.485
1414.93	60.3808
1415.2	64.4812
1415.47	60.375
1415.73	57.2934
1416	54.213
1416.27	61.4033
1416.54	59.3533
1416.81	55.2493
1417.07	58.3346
1417.34	62.4488
1417.61	56.2903
1417.88	62.4594
1418.15	60.4061
1418.42	55.2675
1418.68	55.268
1418.95	55.2687
1419.22	55.2675
1419.49	51.1559
1419.76	52.1759
1420.02	52.1639
1420.29	54.2058
1420.56	52.1394
1420.83	57.2607
1421.1	61.3526
1421.36	61.3392
1421.63	55.1735
1421.9	44.9106
1422.17	50.0545
1422.44	55.2051
1422.7	56.2497
1422.97	59.3627
1423.24	60.4417
1423.51	54.316
1423.77	56.2371
1424.04	53.039
1424.31	57.1537
1424.58	57.0954
1424.85	57.0939
1425.11	58.1337
1425.38	55.0965
1425.65	57.1532
1425.92	56.1175
1426.19	57.1613
1426.45	53.0519
1426.72	53.0403
1426.99	49.9481
1427.26	48.9069
1427.52	51.9647
1427.79	55.0142
1428.06	58.0661
1428.33	45.7674
1428.59	53.9534
1428.86	56
1429.13	56.0015
1429.4	50.8842
1429.67	50.8883
1429.93	46.7972
1430.2	48.8547
1430.47	49.8911
1430.74	49.9001
1431	47.8631
1431.27	53.012
1431.54	47.8979
1431.81	46.8781
1432.07	50.9818
1432.34	47.8917
1432.61	56.0858
1432.87	47.8687
1433.14	51.9538
1433.41	45.781
1433.68	50.8826
1433.95	51.8843
1434.21	46.7489
1434.48	53.9099
1434.75	42.6648
1435.01	53.9435
1435.28	46.7709
1435.55	48.8187
1435.82	43.692
1436.08	44.7126
1436.35	51.8801
1436.62	48.8009
1436.89	48.7942
1437.15	43.6656
1437.42	47.7569
1437.69	44.6807
1437.95	46.722
1438.22	51.8381
1438.49	45.6939
1438.76	50.8209
1439.02	51.8482
1439.29	49.799
1439.56	45.7017
1439.82	45.7071
1440.09	54.9404
1440.36	44.7021
1440.63	44.7059
1440.89	47.7831
1441.16	43.6801
1441.43	49.8338
1441.69	43.6753
1441.96	47.7669
1442.23	48.7859
1442.49	45.7181
1442.76	48.7937
1443.03	49.8275
1443.3	45.7169
1443.56	46.7322
1443.83	46.7233
1444.1	44.6663
1444.36	44.6626
1444.63	46.7139
1444.9	51.8531
1445.16	45.7099
1445.43	51.8794
1445.7	48.7951
1445.97	47.7626
1446.23	46.7306
1446.5	51.8532
1446.77	48.7703
1447.03	43.6365
1447.3	44.6565
1447.57	45.6752
1447.83	49.7684
1448.1	48.7361
1448.37	47.7086
1448.63	47.7153
1448.9	43.6221
1449.17	46.6999
1449.43	41.5689
1449.7	43.6144
1449.97	43.6066
1450.23	47.6983
1450.5	46.6631
1450.77	44.6069
1451.03	49.7262
1451.3	37.4214
1451.57	44.5897
1451.83	48.6819
1452.1	40.478
1452.37	44.571
1452.63	48.6651
1452.9	44.5657
1453.17	47.6397
1453.43	44.5693
1453.7	42.5221
1453.97	46.6197
1454.23	50.7134
1454.5	48.6592
1454.77	42.5089
1455.03	43.5317
1455.3	48.6518
1455.56	47.6219
1455.83	39.4236
1456.1	38.4039
1456.36	41.4805
1456.63	39.4285
1456.9	43.5225
1457.16	45.5622
1457.43	39.4054
1457.7	41.4492
1457.96	41.4444
1458.23	47.5868
1458.49	45.5363
1458.76	42.4623
1459.03	45.5362
1459.29	42.4628
1459.56	44.5115
1459.82	42.4613
1460.09	46.5558
1460.36	41.4282
1460.62	38.3498
1460.89	40.3931
1461.16	44.4834
1461.42	38.3307
1461.69	42.4194
1461.95	39.3395
1462.22	39.3305
1462.49	43.415
1462.75	40.3339
1463.02	44.4151
1463.28	43.3796
1463.55	44.3893
1463.82	45.4
1464.08	44.3739
1464.35	45.4089
1464.61	42.3592
1464.88	42.3729
1465.15	42.3915
1465.41	41.3324
1465.68	41.252
1465.94	42.2354
1466.21	36.1061
1466.48	41.2197
1466.74	34.0686
1467.01	38.1318
1467.27	38.1243
1467.54	35.0654
1467.8	40.1619
1468.07	35.0562
1468.34	42.193
1468.6	39.1299
1468.87	42.187
1469.13	47.2823
1469.4	40.1362
1469.67	38.0894
1469.93	40.1188
1470.2	37.0488
1470.46	40.0968
1470.73	36.0129
1470.99	38.0442
1471.26	39.058
1471.53	40.0689
1471.79	38.0216
1472.06	42.0875
1472.32	38.009
1472.59	36.9871
1472.85	42.0751
1473.12	43.0899
1473.39	39.0119
1473.65	41.0398
1473.92	43.067
1474.18	33.9
1474.45	36.9482
1474.71	43.0519
1474.98	34.9119
1475.24	42.0369
1475.51	39.9997
1475.78	39.9963
1476.04	44.0612
1476.31	43.0353
1476.57	43.0288
1476.84	40.988
1477.1	43.0135
1477.37	33.8504
1477.63	41.9812
1477.9	44.0115
1478.16	42.9912
1478.43	36.883
1478.69	45.0064
1478.96	36.8655
1479.22	38.8903
1479.49	36.8489
1479.76	36.8394
1480.02	40.892
1480.29	36.8186
1480.55	38.833
1480.82	38.8191
1481.08	43.8826
1481.35	41.847
1481.61	34.7362
1481.88	35.752
1482.14	41.8441
1482.41	43.8798
1482.67	37.7964
1482.94	39.8311
1483.2	42.8746
1483.47	39.8318
1483.73	34.7551
1484	35.7685
1484.26	36.7805
1484.53	36.7627
1484.79	35.7246
1485.06	39.7358
1485.32	33.6051
1485.59	37.632
1485.85	40.6317
1486.12	35.6625
1486.38	33.6441
1486.65	34.6693
1486.91	39.692
1487.18	42.7508
1487.44	31.6081
1487.71	42.7401
1487.97	38.6762
1488.24	38.6684
1488.5	39.6722
1488.77	37.6362
1489.03	42.6851
1489.3	42.6746
1489.56	37.6084
1489.83	39.6263
1490.09	34.563
1490.36	36.5838
1490.62	41.6394
1490.89	33.5397
1491.15	35.5531
1491.42	39.5881
1491.68	38.5709
1491.95	38.567
1492.21	42.6087
1492.48	38.5643
1492.74	36.5387
1493	37.5455
1493.27	34.5092
1493.53	35.5179
1493.8	43.6
1494.06	32.477
1494.33	34.497
1494.59	39.5518
1494.86	41.5751
1495.12	38.5384
1495.39	40.5513
1495.65	36.4946
1495.92	32.438
1496.18	33.4357
1496.45	43.5238
1496.71	38.4677
1496.97	38.4606
1497.24	35.425
1497.5	41.4782
1497.77	41.4756
1498.03	40.4617
1498.3	36.4218
1498.56	39.4476
1498.82	41.4648
1499.09	37.427
1499.35	37.4266
1499.62	36.4176
1499.88	31.3715
1500.15	36.42
1500.41	35.4096
1500.68	41.4646
1500.94	35.4037
1501.2	39.4384
1501.47	38.4224
1501.73	32.357
1502	36.3894
1502.26	35.3769
1502.52	39.4096
1502.79	38.3945
1503.05	36.3662
1503.32	39.3822
1503.58	42.4006
1503.85	40.3738
1504.11	33.3134
1504.37	34.323
1504.64	34.3224
1504.9	39.3628
1505.17	40.3672
1505.43	39.3523
1505.7	35.3112
1505.96	37.3142
1506.22	37.298
1506.49	40.3155
1506.75	39.3046
1507.02	35.2743
1507.28	43.3385
1507.54	35.2768
1507.81	31.2455
1508.07	39.3046
1508.34	44.3378
1508.6	35.2649
1508.86	36.271
1509.13	41.3085
1509.39	40.2993
1509.66	39.2889
1509.92	38.2789
1510.18	35.2579
1510.45	41.3051
1510.71	38.2717
1510.98	33.2246
1511.24	35.2286
1511.5	41.2575
1511.77	34.1922
1512.03	31.1529
1512.29	43.1991
1512.56	37.1446
1512.82	35.1168
1513.08	33.0963
1513.35	38.1064
1513.61	33.077
1513.88	37.0872
1514.14	32.0739
1514.4	35.0984
1514.67	37.1089
1514.93	40.1156
1515.2	41.108
1515.46	35.0706
1515.72	38.07
1515.99	34.042
1516.25	35.0321
1516.51	34.0192
1516.78	36.019
1517.04	38.0192
1517.3	41.0223
1517.57	35.0033
1517.83	39.0123
1518.09	38.0104
1518.36	42.0271
1518.62	39.0185
1518.88	37.0132
1519.15	37.0134
1519.41	39.021
1519.67	33.0026
1519.94	30.9955
1520.2	38.0156
1520.47	39.0129
1520.73	31.986
1520.99	39.0081
1521.26	33.9936
1521.52	37.0048
1521.78	40.0143
1522.05	38.0037
1522.31	31.9782
1522.57	35.9849
1522.84	35.9781
1523.1	29.9542
1523.36	34.9607
1523.62	40.9623
1523.89	34.9304
1524.15	39.9275
1524.41	38.9148
1524.68	35.9011
1524.94	37.8955
1525.2	37.8979
1525.47	40.9021
1525.73	39.9
1525.99	37.9007
1526.26	35.9023
1526.52	38.9166
1526.78	34.9137
1527.05	38.9241
1527.31	30.902
1527.57	34.904
1527.84	36.9038
1528.1	35.8962
1528.36	37.8949
1528.63	35.8841
1528.89	35.8779
1529.15	32.8671
1529.41	37.8714
1529.68	37.8685
1529.94	37.8637
1530.2	37.8551
1530.47	36.8498
1530.73	38.8541
1530.99	36.857
1531.25	36.8629
