#Acq. time (s)=	30
#Accumulations=	2
#Range (cm-¹)=	1200...2365
#Windows=	3
#Auto scanning=	Off
#Autofocus=	Off
#Macrospot=	Off
#AutoExposure=	Off
#Spike filter=	Multiple accum.
#Delay time (s)=	2
#Binning=	1
#Readout mode=	Signal
#DeNoise=	Off
#ICS correction=	On
#Dark correction=	Off
#Inst. Process=	Off
#Detector Gain=	Best Dynamic
#Detector ADC=	50 kHz HS
#Detector temperature (°C)=	-60.09
#Instrument=	LabRAM HR Evol
#Detector=	SIN-EM FIVIS
#Objective=	x100_VIS
#Grating=	1800 (450-850nm)
#ND Filter=	100%
#Laser=	532nm_Edge
#Hole=	49.98
#Temperature=	0
#Range=	Visible
#StageXY=	75x50mm Scan+
#StageZ=	Z motor
#X (µm)=	0
#Y (µm)=	0
#Z (µm)=	-245.6
#Full time(mm:ss)=	3:23
#Project=	21_11_04
#Sample=	BU19w
#Site=	
#Title=	BU19w-E-FF11b-FI01-V_1800 (450-850nm)_532nm_Edge_100%_x100_VIS_H50um_30sX2
#Remark=	
#Date=	04.11.2021 18:28
#Acquired=	04.11.2021 18:28:15
1202.73	34.9979
1203.01	32.8287
1203.29	38.1765
1203.57	31.7184
1203.85	37.08
1204.12	30.6417
1204.4	36.0132
1204.68	34.9278
1204.96	34.9126
1205.24	35.9717
1205.51	34.8808
1205.79	33.7916
1206.07	32.7036
1206.35	31.6165
1206.63	36.959
1206.9	29.4509
1207.18	29.4442
1207.46	33.7199
1207.74	29.4331
1208.01	35.8456
1208.29	35.8349
1208.57	30.4785
1208.85	33.6804
1209.13	29.4016
1209.4	33.6761
1209.68	32.6021
1209.96	34.7287
1210.23	35.7823
1210.51	33.6341
1210.79	36.8245
1211.07	33.611
1211.35	33.5992
1211.62	28.2549
1211.9	32.5093
1212.18	35.697
1212.46	33.5559
1212.73	29.2877
1213.01	32.4777
1213.29	36.7304
1213.57	29.2762
1213.84	31.4067
1214.12	31.4074
1214.4	32.4721
1214.68	29.2774
1214.95	35.6635
1215.23	33.5325
1215.51	31.3975
1215.78	30.3237
1216.06	32.4384
1216.34	29.2355
1216.62	35.6021
1216.9	32.4044
1217.17	35.5812
1217.45	32.3867
1217.73	32.3794
1218	29.1879
1218.28	33.4282
1218.56	34.4869
1218.84	36.6059
1219.11	29.176
1219.39	32.3522
1219.67	31.2889
1219.94	32.3503
1220.22	34.4699
1220.5	36.5893
1220.77	36.5825
1221.05	32.3363
1221.33	32.3285
1221.61	34.4362
1221.88	32.3031
1222.16	29.1115
1222.44	34.3868
1222.72	32.257
1222.99	33.2981
1223.27	36.4579
1223.55	30.1056
1223.82	36.4329
1224.1	34.3146
1224.38	37.475
1224.65	37.4726
1224.93	38.5295
1225.21	38.5357
1225.49	38.54
1225.76	35.3735
1226.04	37.4825
1226.32	37.4775
1226.59	31.1375
1226.87	36.402
1227.15	39.5368
1227.42	35.2922
1227.7	36.3247
1227.98	36.296
1228.25	36.2653
1228.53	30.9981
1228.81	37.3554
1229.08	37.4418
1229.36	38.5078
1229.64	33.2009
1229.91	37.3945
1230.19	36.3393
1230.47	36.3305
1230.74	31.0165
1231.02	30.9979
1231.3	37.3045
1231.57	36.253
1231.85	33.0972
1232.13	37.298
1232.4	37.2965
1232.68	38.3436
1232.96	34.1396
1233.23	35.1909
1233.51	28.8904
1233.79	32.045
1234.06	33.0997
1234.34	38.3605
1234.62	29.9558
1234.89	36.2652
1235.17	36.2696
1235.45	36.2735
1235.72	35.2232
1236	34.1686
1236.27	33.1124
1236.55	36.2598
1236.83	34.1473
1237.1	29.9339
1237.38	35.1728
1237.66	29.9126
1237.93	35.1472
1238.21	34.0867
1238.49	34.08
1238.76	36.1718
1239.04	33.0225
1239.31	34.068
1239.59	33.0184
1239.87	34.0659
1240.14	33.0182
1240.42	31.9714
1240.7	33.0217
1240.97	38.263
1241.25	34.0632
1241.52	38.2496
1241.8	35.1041
1242.08	31.9633
1242.35	37.2051
1242.63	35.1166
1242.91	30.9245
1243.18	35.1162
1243.46	34.0701
1243.74	31.975
1244.01	36.1659
1244.29	37.2115
1244.56	31.9656
1244.84	37.1959
1245.11	31.9482
1245.39	35.0772
1245.67	34.0222
1245.94	35.0665
1246.22	36.1114
1246.49	34.0188
1246.77	36.1099
1247.05	34.0143
1247.32	38.1992
1247.6	37.1435
1247.87	31.9013
1248.15	36.0821
1248.43	41.3118
1248.7	36.0854
1248.98	36.0856
1249.25	37.129
1249.53	33.9913
1249.8	32.9423
1250.08	33.9793
1250.36	35.0163
1250.63	37.0992
1250.91	38.1373
1251.18	34.9967
1251.46	34.9905
1251.74	40.2055
1252.01	29.757
1252.29	36.0144
1252.56	36.0072
1252.84	33.9151
1253.11	39.1313
1253.39	32.8734
1253.66	36.0106
1253.94	38.106
1254.22	36.0231
1254.49	38.1127
1254.77	36.0261
1255.04	37.0715
1255.32	33.9376
1255.59	37.0706
1255.87	36.0286
1256.14	36.0332
1256.42	36.0364
1256.7	32.9025
1256.97	36.0319
1257.25	40.2052
1257.52	39.1578
1257.8	40.1988
1258.07	41.2394
1258.35	41.2303
1258.62	40.182
1258.9	34.9666
1259.18	40.1879
1259.45	37.0739
1259.73	32.8935
1260	37.0625
1260.28	36.0057
1260.55	38.0821
1260.83	42.2473
1261.1	39.1132
1261.38	44.358
1261.65	40.2262
1261.93	43.4334
1262.2	42.3247
1262.48	44.3593
1262.75	49.517
1263.03	51.6476
1263.31	48.5572
1263.58	49.6371
1263.85	46.562
1264.13	43.3917
1264.41	46.5103
1264.68	39.1921
1264.96	45.4654
1265.23	38.1384
1265.51	44.4059
1265.78	43.363
1266.06	42.3228
1266.33	41.2847
1266.61	42.3389
1266.88	45.4868
1267.16	50.7297
1267.43	40.2821
1267.71	43.4373
1267.98	47.6472
1268.26	51.8473
1268.53	46.6181
1268.81	42.434
1269.08	40.3407
1269.36	46.6186
1269.63	48.7008
1269.91	46.5935
1270.18	57.0519
1270.46	44.4805
1270.73	47.615
1271.01	45.518
1271.28	47.609
1271.56	44.4778
1271.83	46.5833
1272.1	44.5048
1272.38	49.7567
1272.65	49.7694
1272.93	45.5905
1273.2	45.6025
1273.48	47.7118
1273.75	48.7707
1274.03	49.8243
1274.3	50.873
1274.58	50.8722
1274.85	49.8265
1275.13	45.6372
1275.4	47.7436
1275.68	46.7043
1275.95	51.9628
1276.22	47.7728
1276.5	45.6802
1276.78	40.4379
1277.05	52.0043
1277.32	48.8644
1277.6	43.6196
1277.87	49.9354
1278.15	50.9998
1278.42	44.6997
1278.7	49.9676
1278.97	45.7608
1279.24	45.7578
1279.52	44.7009
1279.79	48.9043
1280.07	53.1134
1280.34	49.9617
1280.62	52.0753
1280.89	49.9871
1281.17	56.3135
1281.44	54.2087
1281.71	64.7377
1281.99	66.8536
1282.26	73.1664
1282.54	99.4558
1282.81	104.627
1283.09	131.887
1283.36	167.618
1283.63	182.276
1283.91	182.716
1284.18	138.554
1284.46	103.804
1284.73	80.5856
1285.01	67.9132
1285.28	54.2181
1285.55	52.1244
1285.83	45.8136
1286.1	42.6427
1286.38	44.7477
1286.65	39.4823
1286.93	44.7415
1287.2	40.523
1287.47	40.5167
1287.75	44.7246
1288.02	42.6211
1288.3	41.5701
1288.57	36.3127
1288.84	35.2666
1289.12	43.6962
1289.39	40.5455
1289.67	40.5542
1289.94	37.398
1290.21	40.5534
1290.49	38.4436
1290.76	37.3896
1291.04	38.4426
1291.31	37.3887
1291.58	38.4404
1291.86	37.3896
1292.13	35.2844
1292.4	38.4393
1292.68	35.2798
1292.95	36.3393
1293.23	36.3558
1293.5	39.5327
1293.77	35.3278
1294.05	36.3807
1294.32	33.2174
1294.59	38.4895
1294.87	38.5038
1295.14	39.5783
1295.42	38.5475
1295.69	35.4013
1295.96	38.5794
1296.24	34.3527
1296.51	34.3516
1296.79	38.5733
1297.06	37.5095
1297.33	37.5014
1297.61	34.3239
1297.88	39.601
1298.15	35.3798
1298.43	36.4301
1298.7	36.4247
1298.97	31.1413
1299.25	38.5274
1299.52	36.42
1299.79	40.6489
1300.07	32.2043
1300.34	38.539
1300.61	40.649
1300.89	31.147
1301.16	41.7103
1301.44	38.549
1301.71	39.6098
1301.98	36.443
1302.26	33.2743
1302.53	32.2166
1302.8	35.3823
1303.08	34.3211
1303.35	36.4296
1303.62	39.5975
1303.9	34.3183
1304.17	35.3741
1304.44	34.3156
1304.72	39.589
1304.99	33.248
1305.26	35.3512
1305.54	34.2878
1305.81	34.2804
1306.08	33.2213
1306.36	33.22
1306.63	37.4407
1306.9	34.2787
1307.18	32.1693
1307.45	33.2235
1307.72	31.1157
1307.99	35.3336
1308.27	34.2791
1308.54	34.2836
1308.81	32.1785
1309.09	36.4042
1309.36	34.2982
1309.63	32.1881
1309.91	34.2967
1310.18	31.1302
1310.45	37.4629
1310.73	34.2989
1311	35.356
1311.27	30.0805
1311.54	31.1409
1311.82	37.4811
1312.09	37.4848
1312.36	32.2065
1312.64	33.2573
1312.91	36.4214
1313.18	35.364
1313.45	33.2498
1313.73	37.4708
1314	36.4167
1314.27	29.0303
1314.55	31.1453
1314.82	35.3728
1315.09	33.2652
1315.36	32.2135
1315.64	34.3272
1315.91	37.4936
1316.18	36.4356
1316.46	37.4906
1316.73	34.322
1317	36.4371
1317.28	36.4417
1317.55	34.3318
1317.82	37.5028
1318.09	34.3347
1318.37	31.1658
1318.64	38.5606
1318.91	38.5593
1319.18	34.3323
1319.46	36.4461
1319.73	34.3346
1320	34.3338
1320.27	32.2176
1320.55	33.2676
1320.82	35.3709
1321.09	34.3044
1321.36	33.2416
1321.64	32.1782
1321.91	33.2271
1322.18	32.1679
1322.45	35.3272
1322.73	35.32
1323	36.3751
1323.27	30.0511
1323.54	28.9977
1323.82	34.2692
1324.09	34.2697
1324.36	35.3229
1324.63	34.2713
1324.91	35.3211
1325.18	31.0918
1325.45	31.0764
1325.72	33.1586
1325.99	36.3012
1326.27	34.1903
1326.54	35.2471
1326.81	33.1647
1327.08	34.232
1327.36	36.3511
1327.63	36.3648
1327.9	35.325
1328.17	36.3924
1328.45	35.3466
1328.72	31.1201
1328.99	35.3442
1329.26	37.4539
1329.53	33.2317
1329.81	34.2831
1330.08	29.0041
1330.35	32.1615
1330.62	31.0986
1330.9	37.4114
1331.17	32.1275
1331.44	33.1678
1331.71	34.2114
1331.98	37.3588
1332.26	34.1906
1332.53	33.1265
1332.8	31.013
1333.07	34.156
1333.34	33.0957
1333.62	34.1367
1333.89	35.1778
1334.16	36.2187
1334.43	36.2107
1334.7	36.2038
1334.98	30.9509
1335.25	33.0434
1335.52	37.2332
1335.79	33.0327
1336.06	36.1738
1336.34	36.1692
1336.61	34.0691
1336.88	36.1625
1337.15	35.1113
1337.42	30.9139
1337.69	34.0475
1337.96	35.0897
1338.24	31.9427
1338.51	28.7963
1338.78	34.0303
1339.05	34.0305
1339.32	38.2214
1339.6	34.0341
1339.87	34.0347
1340.14	29.8473
1340.41	34.0366
1340.68	34.0352
1340.95	34.0334
1341.23	37.1715
1341.5	34.0256
1341.77	40.2996
1342.04	35.0574
1342.31	36.0942
1342.58	35.0409
1342.86	33.9919
1343.13	29.8068
1343.4	33.9897
1343.67	35.0358
1343.94	35.0363
1344.21	35.0347
1344.48	36.0756
1344.76	31.8866
1345.03	29.7876
1345.3	38.138
1345.57	34.9933
1345.84	36.0224
1346.11	36.0075
1346.39	32.8669
1346.66	33.9
1346.93	33.8901
1347.2	35.9676
1347.47	35.9623
1347.74	31.7896
1348.01	40.1247
1348.28	31.7834
1348.55	35.9455
1348.83	34.897
1349.1	38.015
1349.37	36.9668
1349.64	33.8369
1349.91	31.7489
1350.18	33.8235
1350.45	30.6937
1350.73	34.8487
1351	35.8811
1351.27	34.8359
1351.54	36.9141
1351.81	33.7967
1352.08	34.8427
1352.35	30.691
1352.62	39.0211
1352.89	33.8379
1353.17	36.9984
1353.44	36.9899
1353.71	32.7787
1353.98	31.6978
1354.25	33.7671
1354.52	36.8889
1354.79	35.843
1355.06	33.7518
1355.33	36.874
1355.6	32.7334
1355.88	32.7233
1356.15	35.8361
1356.42	36.8716
1356.69	36.8685
1356.96	37.9027
1357.23	41.012
1357.5	36.8528
1357.77	35.8083
1358.04	36.8397
1358.31	35.7959
1358.58	36.8254
1358.86	35.7825
1359.13	35.7779
1359.4	35.7718
1359.67	35.7604
1359.94	40.9319
1360.21	36.7778
1360.48	37.8095
1360.75	42.9874
1361.02	34.7002
1361.29	35.734
1361.56	34.6955
1361.83	34.691
1362.1	42.9715
1362.37	36.7561
1362.65	38.8278
1362.92	38.8327
1363.19	38.8393
1363.46	35.736
1363.73	46.0977
1364	40.9155
1364.27	42.9836
1364.54	38.835
1364.81	41.9331
1365.08	35.7125
1365.35	38.809
1365.62	42.9391
1365.89	38.7916
1366.16	46.0207
1366.43	38.769
1366.7	45.9942
1366.97	49.0899
1367.24	42.89
1367.52	45.9963
1367.79	44.9654
1368.06	43.9344
1368.33	47.0386
1368.6	54.2792
1368.87	48.0797
1369.14	53.2478
1369.41	47.0382
1369.68	49.1004
1369.95	48.0575
1370.22	48.0482
1370.49	45.9746
1370.76	46.9966
1371.03	46.982
1371.3	47.9971
1371.57	44.8832
1371.84	53.1184
1372.11	50.0093
1372.38	53.0917
1372.65	49.9917
1372.92	53.0772
1373.19	56.1629
1373.46	52.0361
1373.73	58.2143
1374	58.2104
1374.27	64.3875
1374.54	63.3504
1374.81	50.9881
1375.08	62.3248
1375.35	64.3871
1375.62	64.3898
1375.89	60.2604
1376.16	67.4548
1376.43	62.2874
1376.7	75.64
1376.97	79.7509
1377.24	81.8254
1377.51	71.5574
1377.78	90.1307
1378.05	89.1515
1378.32	89.179
1378.59	91.2446
1378.86	97.421
1379.13	96.3773
1379.4	97.3916
1379.67	103.545
1379.94	99.349
1380.21	112.672
1380.48	104.387
1380.75	108.511
1381.02	114.67
1381.29	113.596
1381.56	110.457
1381.83	108.353
1382.1	110.367
1382.37	109.296
1382.64	108.239
1382.91	109.23
1383.18	99.9801
1383.45	104.061
1383.72	100.985
1383.99	107.142
1384.26	98.9555
1384.53	101.026
1384.8	102.095
1385.07	102.123
1385.34	107.286
1385.61	113.457
1385.87	119.645
1386.14	151.502
1386.41	204.923
1386.68	307.608
1386.95	394.164
1387.22	367.86
1387.49	233.469
1387.76	142.643
1388.03	108.062
1388.3	90.7636
1388.57	75.4657
1388.84	71.3522
1389.11	70.3475
1389.38	67.2557
1389.65	60.0328
1389.92	57.9243
1390.19	55.8966
1390.46	57.9137
1390.73	54.8302
1390.99	55.8546
1391.26	52.7696
1391.53	45.5852
1391.8	52.7429
1392.07	49.6614
1392.34	43.5115
1392.61	51.6956
1392.88	43.5018
1393.15	46.5681
1393.42	41.4473
1393.69	48.6075
1393.96	41.4417
1394.23	41.4396
1394.5	43.4867
1394.76	45.5419
1395.03	40.4304
1395.3	40.4339
1395.57	42.4812
1395.84	45.5492
1396.11	35.3097
1396.38	36.3286
1396.65	37.3465
1396.92	39.385
1397.19	37.3342
1397.46	39.3782
1397.73	42.4483
1397.99	43.4755
1398.26	40.4105
1398.53	37.3436
1398.8	39.3945
1399.07	41.4469
1399.34	37.3572
1399.61	40.4292
1399.88	39.4086
1400.14	35.3216
1400.41	35.3279
1400.68	41.4731
1400.95	39.4272
1401.22	40.4533
1401.49	37.3883
1401.76	43.5549
1402.03	36.4028
1402.3	35.3955
1402.57	37.4613
1402.83	35.4165
1403.1	39.5257
1403.37	36.4418
1403.64	39.504
1403.91	41.5515
1404.18	30.2661
1404.45	37.4441
1404.72	36.4127
1404.99	36.4062
1405.25	33.3238
1405.52	38.4441
1405.79	39.4645
1406.06	34.336
1406.33	35.3612
1406.6	42.5386
1406.87	45.6177
1407.13	39.4698
1407.4	38.447
1407.67	40.5
1407.94	47.6801
1408.21	46.658
1408.48	48.7133
1408.75	50.7689
1409.01	44.6189
1409.28	42.5703
1409.55	39.4949
1409.82	34.3614
1410.09	36.4041
1410.36	36.393
1410.62	35.3587
1410.89	33.3027
1411.16	33.2977
1411.43	37.3927
1411.7	34.3221
1411.97	32.2802
1412.23	33.3183
1412.5	36.4348
1412.77	33.3891
1413.04	36.4642
1413.31	33.3299
1413.58	34.3485
1413.84	36.4201
1414.11	32.3388
1414.38	30.2853
1414.65	36.4463
1414.92	30.2868
1415.19	35.4206
1415.45	30.2895
1415.72	28.2385
1415.99	31.3223
1416.26	34.4067
1416.53	34.4109
1416.8	34.4151
1417.06	30.3097
1417.33	29.2847
1417.6	32.3683
1417.87	28.2586
1418.14	31.3442
1418.4	33.3991
1418.67	28.2629
1418.94	32.372
1419.21	31.3393
1419.48	29.2782
1419.74	33.3816
1420.01	30.2946
1420.28	29.2614
1420.55	31.3085
1420.82	32.3304
1421.08	33.3569
1421.35	33.362
1421.62	33.3761
1421.89	31.3296
1422.16	33.4004
1422.42	31.3649
1422.69	30.3703
1422.96	33.4629
1423.23	32.2751
1423.5	32.3148
1423.76	29.2105
1424.03	30.2116
1424.3	31.2617
1424.57	34.3323
1424.83	34.3775
1425.1	31.2682
1425.37	30.2647
1425.64	30.2626
1425.91	29.2341
1426.17	36.405
1426.44	30.2445
1426.71	34.3356
1426.98	31.2508
1427.24	32.2615
1427.51	31.2314
1427.78	33.276
1428.05	29.1803
1428.32	33.2776
1428.58	33.2802
1428.85	30.2114
1429.12	32.2642
1429.38	26.1237
1429.65	32.2786
1429.92	35.3619
1430.19	28.1935
1430.46	30.2561
1430.72	30.269
1430.99	31.3026
1431.26	36.437
1431.53	35.4071
1431.79	28.2165
1432.06	27.1852
1432.33	29.2315
1432.6	28.1954
1432.86	29.2094
1433.13	30.2217
1433.4	28.1641
1433.67	30.2079
1433.93	32.2617
1434.2	31.2517
1434.47	29.204
1434.73	37.4027
1435	29.2047
1435.27	30.2284
1435.54	31.2516
1435.8	30.2251
1436.07	32.2718
1436.34	31.2445
1436.6	36.3634
1436.87	29.1917
1437.14	27.1416
1437.41	35.3323
1437.67	26.1156
1437.94	34.3129
1438.21	32.2684
1438.48	31.246
1438.74	32.272
1439.01	31.2512
1439.28	36.3817
1439.54	31.2658
1439.81	30.2465
1440.08	32.3001
1440.35	32.3014
1440.61	27.1754
1440.88	30.2514
1441.15	27.1716
1441.41	30.2442
1441.68	31.2725
1441.95	31.2756
1442.21	31.2801
1442.48	30.2547
1442.75	27.1739
1443.02	29.2204
1443.28	33.3178
1443.55	32.2908
1443.82	28.191
1444.08	33.3237
1444.35	32.3067
1444.62	27.1873
1444.88	31.2931
1445.15	30.2645
1445.42	29.2362
1445.69	28.2081
1445.95	33.3345
1446.22	33.3321
1446.49	30.2532
1446.75	29.2252
1447.02	34.3485
1447.28	28.1935
1447.55	29.2173
1447.82	31.2711
1448.09	29.2273
1448.35	31.2822
1448.62	26.1546
1448.89	27.1788
1449.15	26.1504
1449.42	28.1974
1449.69	32.2933
1449.95	29.2148
1450.22	28.1876
1450.49	29.2105
1450.75	32.2828
1451.02	32.2799
1451.29	28.1782
1451.55	32.2742
1451.82	27.1498
1452.09	31.248
1452.35	27.1507
1452.62	31.2522
1452.88	27.1567
1453.15	31.2575
1453.42	32.2808
1453.68	30.2293
1453.95	27.1548
1454.22	27.1551
1454.48	29.2044
1454.75	30.2273
1455.02	32.2753
1455.28	30.231
1455.55	31.2601
1455.81	29.2113
1456.08	29.2102
1456.35	30.2308
1456.61	25.1023
1456.88	29.1982
1457.15	30.2208
1457.41	28.1703
1457.68	30.2191
1457.95	26.122
1458.21	30.2213
1458.48	29.1986
1458.74	27.1505
1459.01	29.2011
1459.28	31.2498
1459.54	29.199
1459.81	26.1238
1460.08	31.2438
1460.34	30.2168
1460.61	30.213
1460.87	25.0891
1461.14	33.2772
1461.41	28.1532
1461.67	30.1957
1461.94	28.1431
1462.2	32.2301
1462.47	30.1771
1462.74	30.1702
1463	29.1406
1463.27	31.1807
1463.54	28.1182
1463.8	27.1101
1464.07	30.1902
1464.33	32.2485
1464.6	33.2885
1464.86	32.1878
1465.13	32.1554
1465.4	31.1195
1465.66	27.0493
1465.93	26.0322
1466.19	32.1446
1466.46	29.0712
1466.73	26.0166
1466.99	32.1366
1467.26	33.1544
1467.52	30.0922
1467.79	29.0717
1468.05	27.0312
1468.32	29.0704
1468.59	26.0082
1468.85	33.1439
1469.12	30.0803
1469.38	28.0343
1469.65	28.0283
1469.92	25.9861
1470.18	31.0778
1470.45	28.0182
1470.71	29.0352
1470.98	26.9921
1471.24	33.0981
1471.51	33.0951
1471.77	30.0389
1472.04	29.0199
1472.31	33.092
1472.57	27.9997
1472.84	29.0146
1473.1	29.0099
1473.37	26.9708
1473.64	27.9859
1473.9	26.9675
1474.17	30.0219
1474.43	31.0429
1474.7	34.0972
1474.96	25.9544
1475.23	34.0949
1475.49	26.9674
1475.76	26.9641
1476.02	26.9621
1476.29	26.9589
1476.55	30.0056
1476.82	26.9509
1477.09	27.9668
1477.35	30
1477.62	24.9138
1477.88	32.0266
1478.15	28.9715
1478.41	32.0166
1478.68	30.9953
1478.94	27.9417
1479.21	31.9995
1479.47	28.9459
1479.74	29.9528
1480	29.9433
1480.27	27.9069
1480.53	27.9032
1480.8	29.9286
1481.07	28.9137
1481.33	27.9029
1481.6	27.9078
1481.86	26.8982
1482.12	31.979
1482.39	35.0269
1482.65	27.922
1482.92	26.9091
1483.19	29.9563
1483.45	27.925
1483.72	34.0091
1483.98	26.8897
1484.25	27.8806
1484.51	31.8963
1484.78	30.859
1485.04	31.8478
1485.31	31.8857
1485.57	23.8122
1485.84	30.9173
1486.1	25.8341
1486.37	28.8719
1486.63	24.8271
1486.9	31.9164
1487.16	31.9083
1487.43	33.9285
1487.69	29.8729
1487.96	31.892
1488.22	31.8846
1488.49	27.83
1488.75	33.8974
1489.02	27.8237
1489.28	25.7982
1489.54	27.8208
1489.81	30.8557
1490.07	26.807
1490.34	30.8481
1490.6	23.7634
1490.87	35.8933
1491.13	31.847
1491.4	26.7914
1491.66	29.8255
1491.93	29.8254
1492.19	26.791
1492.46	25.779
1492.72	31.8446
1492.99	27.7994
1493.25	30.8305
1493.52	29.8195
1493.78	29.8209
1494.04	26.7908
1494.31	29.824
1494.57	28.8099
1494.84	28.803
1495.1	25.7622
1495.37	30.8039
1495.63	33.8265
1495.9	27.7639
1496.16	33.8175
1496.43	28.7657
1496.69	27.7552
1496.96	30.7831
1497.22	25.7355
1497.48	26.7438
1497.75	28.7622
1498.01	30.7811
1498.28	25.7358
1498.54	29.774
1498.81	31.7943
1499.07	31.7969
1499.33	30.7905
1499.6	32.8114
1499.86	26.7542
1500.13	30.7916
1500.39	33.8196
1500.66	31.7987
1500.92	33.8107
1501.18	31.7892
1501.45	26.7424
1501.71	31.7871
1501.98	31.7855
1502.24	28.7532
1502.51	26.7291
1502.77	32.778
1503.03	29.7461
1503.3	27.7275
1503.56	30.7552
1503.83	27.7318
1504.09	25.7157
1504.35	28.7405
1504.62	32.7715
1504.88	30.7509
1505.15	26.713
1505.41	29.7239
1505.68	25.6905
1505.94	30.7269
1506.2	28.711
1506.47	28.7164
1506.73	26.7023
1507	34.7654
1507.26	27.7121
1507.52	30.7337
1507.79	30.7311
1508.05	29.7236
1508.32	30.7325
1508.58	31.741
1508.84	30.7333
1509.11	32.7477
1509.37	27.7107
1509.63	29.7326
1509.9	30.7346
1510.16	28.7144
1510.43	28.708
1510.69	26.687
1510.95	25.6716
1511.22	30.6898
1511.48	28.6617
1511.75	30.6587
1512.01	31.6477
1512.27	29.6303
1512.54	30.6275
1512.8	33.6329
1513.07	30.6163
1513.33	27.6061
1513.59	28.6239
1513.86	31.6441
1514.12	28.6281
1514.38	30.632
1514.65	29.6187
1514.91	32.6238
1515.17	25.5895
1515.44	29.5946
1515.7	24.5718
1515.96	29.5832
1516.23	27.5754
1516.49	24.5653
1516.76	28.5747
1517.02	30.5801
1517.28	30.5815
1517.55	25.572
1517.81	26.5777
1518.07	29.5883
1518.34	31.5964
1518.6	32.602
1518.86	28.5918
1519.13	33.61
1519.39	23.5774
1519.65	29.5953
1519.92	26.5835
1520.18	29.5932
1520.44	32.6054
1520.71	29.5985
1520.97	28.5969
1521.23	29.6
1521.5	30.6013
1521.76	26.5854
1522.02	27.5854
1522.29	28.5854
1522.55	26.5758
1522.81	28.5746
1523.08	27.5622
1523.34	30.5594
1523.6	31.5541
1523.87	32.5498
1524.13	28.5391
1524.39	28.5393
1524.66	31.5458
1524.92	27.5411
1525.18	28.5456
1525.45	30.554
1525.71	28.5571
1525.97	29.5659
1526.24	25.5603
1526.5	30.5728
1526.76	31.5721
1527.02	30.5671
1527.29	26.5563
1527.55	27.5562
1527.81	31.5611
1528.08	32.5595
1528.34	29.5512
1528.6	32.5543
1528.87	31.5518
1529.13	29.5472
1529.39	31.5464
1529.65	27.5381
1529.92	25.5363
1530.18	31.55
1530.44	31.5565
1530.71	28.5561
