#Acq. time (s)=	30
#Accumulations=	2
#Range (cm-¹)=	1200...2365
#Windows=	3
#Auto scanning=	Off
#Autofocus=	Off
#Macrospot=	Off
#AutoExposure=	Off
#Spike filter=	Multiple accum.
#Delay time (s)=	2
#Binning=	1
#Readout mode=	Signal
#DeNoise=	Off
#ICS correction=	On
#Dark correction=	Off
#Inst. Process=	Off
#Detector Gain=	Best Dynamic
#Detector ADC=	50 kHz HS
#Detector temperature (°C)=	-60.09
#Instrument=	LabRAM HR Evol
#Detector=	SIN-EM FIVIS
#Objective=	x100_VIS_LWD
#Grating=	1800 (450-850nm)
#ND Filter=	100%
#Laser=	532nm_Edge
#Hole=	100.021
#Temperature=	0
#Range=	Visible
#StageXY=	75x50mm Scan+
#StageZ=	Z motor
#X (µm)=	0
#Y (µm)=	0
#Z (µm)=	-1.6
#Full time(mm:ss)=	3:11
#Project=	21_11_26
#Sample=	BU19(2)w
#Site=	
#Title=	BU19(2)w-A-FF1b-FI01-V_1800 (450-850nm)_532nm_Edge_100%_x100_VIS_LWD_H100um_30sX2
#Remark=	
#Date=	26.11.2021 14:10
#Acquired=	26.11.2021 14:10:41
1202.72	54.3086
1203	66.2332
1203.28	65.1771
1203.56	64.0608
1203.84	61.8593
1204.11	60.7534
1204.39	55.3543
1204.67	54.2811
1204.95	55.3618
1205.23	60.7249
1205.5	57.4775
1205.78	60.6752
1206.06	53.1313
1206.34	60.6163
1206.61	58.4421
1206.89	58.4138
1207.17	56.2423
1207.45	56.2197
1207.73	59.4172
1208	56.1903
1208.28	57.2508
1208.56	62.5893
1208.84	63.6396
1209.11	52.9257
1209.39	60.3963
1209.67	57.1806
1209.95	59.3159
1210.23	53.9645
1210.5	59.2969
1210.78	60.3398
1211.06	62.4508
1211.34	59.2271
1211.61	58.1367
1211.89	61.3192
1212.17	58.0944
1212.45	53.8071
1212.72	59.1205
1213	51.6444
1213.28	48.4327
1213.56	50.5521
1213.83	57.9984
1214.11	59.0499
1214.39	59.0518
1214.67	54.7946
1214.94	55.8592
1215.22	57.9872
1215.5	63.3072
1215.78	59.045
1216.05	59.0394
1216.33	50.5098
1216.61	61.1293
1216.89	51.5318
1217.16	60.014
1217.44	55.7443
1217.72	58.9144
1218	50.4006
1218.27	49.3263
1218.55	54.6221
1218.83	57.7937
1219.1	53.5414
1219.38	57.7812
1219.66	58.836
1219.94	56.7061
1220.21	61.9986
1220.49	55.632
1220.77	57.7527
1221.04	56.6881
1221.32	52.4396
1221.6	52.4294
1221.88	56.6596
1222.15	61.9414
1222.43	56.6195
1222.71	62.9462
1222.98	61.8555
1223.26	62.8831
1223.54	58.6242
1223.81	60.7129
1224.09	60.6908
1224.37	56.4438
1224.65	58.541
1224.92	58.5289
1225.2	61.687
1225.48	61.6845
1225.76	56.4127
1226.03	59.5853
1226.31	56.4244
1226.59	59.5881
1226.86	54.3039
1227.14	63.7933
1227.42	60.6153
1227.69	54.2538
1227.97	58.4163
1228.25	58.3802
1228.52	58.3461
1228.8	62.4963
1229.08	63.4986
1229.35	59.2897
1229.63	61.5424
1229.91	57.4502
1230.18	55.286
1230.46	56.2864
1230.74	61.5317
1231.01	65.751
1231.29	62.5533
1231.57	57.1763
1231.84	63.491
1232.12	52.9807
1232.4	56.1304
1232.67	58.2242
1232.95	60.3232
1233.23	61.3696
1233.5	69.7666
1233.78	56.1081
1234.06	61.3629
1234.33	62.4182
1234.61	60.3223
1234.89	60.3303
1235.16	60.3395
1235.44	50.8835
1235.71	60.3483
1235.99	63.5089
1236.27	58.2562
1236.54	63.5114
1236.82	58.2463
1237.1	61.3896
1237.37	62.4263
1237.65	69.7581
1237.93	64.4815
1238.2	69.7065
1238.48	65.4829
1238.76	69.6546
1239.03	59.1472
1239.31	67.5245
1239.58	70.6596
1239.86	62.2651
1240.14	64.3566
1240.41	58.0645
1240.69	64.3526
1240.97	64.3535
1241.24	65.4043
1241.52	66.4543
1241.79	66.4474
1242.07	68.5306
1242.35	71.6657
1242.62	68.5224
1242.9	68.5258
1243.18	67.4865
1243.45	74.8327
1243.73	64.3482
1244	70.6376
1244.28	68.5448
1244.56	69.5915
1244.83	66.4413
1245.11	75.8674
1245.39	65.3708
1245.66	70.5919
1245.94	77.8977
1246.21	75.777
1246.49	74.7187
1246.76	74.7119
1247.04	73.6648
1247.32	71.5691
1247.59	82.0284
1247.87	70.5134
1248.14	79.9233
1248.42	80.9389
1248.7	78.8306
1248.97	78.8259
1249.25	79.8758
1249.52	73.605
1249.8	76.737
1250.08	72.5501
1250.35	78.8255
1250.63	78.8082
1250.9	75.6507
1251.18	76.6782
1251.45	77.7072
1251.73	71.4241
1252.01	72.4555
1252.28	74.5303
1252.56	77.6484
1252.83	78.6771
1253.11	75.5282
1253.39	82.8182
1253.66	74.4612
1253.94	84.8958
1254.21	79.6902
1254.49	81.7922
1254.76	75.5446
1255.04	79.727
1255.31	80.7704
1255.59	81.8202
1255.87	80.775
1256.14	82.8587
1256.42	80.7732
1256.69	88.0892
1256.97	95.4128
1257.24	82.882
1257.52	94.3663
1257.79	101.662
1258.07	120.449
1258.35	112.086
1258.62	106.855
1258.9	101.622
1259.17	101.598
1259.45	99.507
1259.72	96.3863
1260	100.576
1260.27	105.838
1260.55	114.163
1260.82	119.354
1261.1	121.397
1261.37	130.756
1261.65	133.864
1261.92	147.443
1262.2	159.06
1262.48	172.859
1262.75	189.706
1263.02	204.017
1263.3	235.067
1263.58	246.429
1263.85	262.326
1264.13	249.991
1264.4	217.814
1264.68	215.83
1264.95	180.15
1265.23	160.247
1265.5	144.569
1265.78	136.195
1266.05	119.452
1266.33	124.675
1266.6	114.234
1266.88	115.293
1267.15	111.133
1267.43	108.021
1267.7	110.141
1267.98	93.4348
1268.25	106.022
1268.53	99.787
1268.8	102.964
1269.08	104.031
1269.35	107.191
1269.63	100.916
1269.9	101.957
1270.18	108.219
1270.45	108.185
1270.73	102.927
1271	107.088
1271.28	107.069
1271.55	103.921
1271.83	104.953
1272.1	106.007
1272.38	109.17
1272.65	111.294
1272.93	94.5788
1273.2	109.269
1273.47	106.154
1273.75	106.181
1274.03	100.966
1274.3	105.187
1274.57	108.351
1274.85	108.355
1275.12	111.496
1275.4	114.643
1275.67	118.851
1275.95	119.919
1276.22	107.347
1276.5	116.819
1276.77	114.739
1277.05	123.161
1277.32	118.977
1277.6	122.157
1277.87	128.49
1278.14	136.928
1278.42	131.699
1278.69	141.185
1278.97	143.328
1279.24	149.662
1279.52	151.789
1279.79	162.3
1280.07	172.805
1280.34	198.025
1280.61	226.413
1280.89	260.087
1281.16	310.602
1281.44	379.069
1281.71	477.067
1281.99	623.447
1282.26	844.479
1282.53	1142.47
1282.81	1482.67
1283.08	1928.74
1283.36	2466.49
1283.63	2967.87
1283.91	3234.74
1284.18	3052.88
1284.45	2427.89
1284.73	1702.8
1285	1127.78
1285.28	749.473
1285.55	519.511
1285.83	380.358
1286.1	301.4
1286.37	247.758
1286.65	214.056
1286.92	201.381
1287.2	175.056
1287.47	164.516
1287.75	158.176
1288.02	148.675
1288.29	144.449
1288.57	132.871
1288.84	129.717
1289.12	132.883
1289.39	122.376
1289.66	121.344
1289.94	120.313
1290.21	105.593
1290.49	118.251
1290.76	109.823
1291.03	115.077
1291.31	105.59
1291.58	109.801
1291.86	104.533
1292.13	107.688
1292.4	106.635
1292.68	108.748
1292.95	95.0496
1293.22	97.1478
1293.5	104.524
1293.77	97.1831
1294.05	98.2766
1294.32	108.862
1294.59	94.1105
1294.87	100.437
1295.14	107.811
1295.42	84.6274
1295.69	93.1034
1295.96	87.8753
1296.24	94.2761
1296.51	87.9734
1296.79	94.324
1297.06	87.9838
1297.33	87.9737
1297.61	93.2414
1297.88	93.2218
1298.15	92.1437
1298.43	82.6148
1298.7	87.9046
1298.97	90.0091
1299.25	85.77
1299.52	85.7577
1299.79	92.0767
1300.07	86.7973
1300.34	87.8677
1300.62	79.4293
1300.89	85.7662
1301.16	85.7616
1301.44	76.2556
1301.71	82.5939
1301.98	93.1676
1302.25	82.6195
1302.53	80.5134
1302.8	82.6278
1303.08	84.7387
1303.35	88.9576
1303.62	79.442
1303.9	88.9307
1304.17	84.7032
1304.44	80.4807
1304.72	76.2565
1304.99	77.3108
1305.26	79.4124
1305.54	77.2865
1305.81	82.5453
1306.08	78.3055
1306.35	81.4505
1306.63	79.3244
1306.9	77.2075
1307.18	82.4797
1307.45	78.2675
1307.72	85.6524
1308	76.1581
1308.27	79.321
1308.54	77.2151
1308.81	75.1004
1309.09	79.323
1309.36	76.17
1309.63	79.3455
1309.91	78.3011
1310.18	73.0311
1310.45	77.2499
1310.73	73.0232
1311	75.1332
1311.27	69.8592
1311.55	77.2499
1311.82	71.9757
1312.09	80.4251
1312.37	70.9371
1312.64	79.3937
1312.91	79.3986
1313.18	73.0592
1313.46	71.9912
1313.73	76.2108
1314	77.2589
1314.28	75.1416
1314.55	75.1408
1314.82	73.0335
1315.09	74.0958
1315.37	86.7744
1315.64	77.2805
1315.91	69.8974
1316.18	75.1871
1316.46	75.1833
1316.73	72.0095
1317	72.0058
1317.28	75.1713
1317.55	74.1145
1317.82	78.3494
1318.09	76.2438
1318.37	75.1916
1318.64	69.9118
1318.91	64.6305
1319.18	72.0254
1319.46	76.2484
1319.73	69.9063
1320	64.6213
1320.28	72.02
1320.55	64.6251
1320.82	69.9029
1321.09	79.3984
1321.37	68.8198
1321.64	71.9668
1321.91	65.611
1322.18	65.5985
1322.46	68.744
1322.73	76.1174
1323	67.6691
1323.27	70.8218
1323.55	67.6447
1323.82	73.9782
1324.09	67.6541
1324.36	69.7635
1324.64	66.5974
1324.91	71.8701
1325.18	79.2483
1325.45	69.7623
1325.73	76.069
1326	70.7654
1326.27	73.8834
1326.54	69.6206
1326.81	76.9642
1327.09	64.3334
1327.36	70.6684
1327.63	66.5021
1327.9	72.8457
1328.18	76.0321
1328.45	68.6813
1328.72	71.8714
1328.99	69.7837
1329.27	71.8997
1329.54	68.7253
1329.81	75.0623
1330.08	67.6733
1330.35	71.8868
1330.63	76.096
1330.9	67.6445
1331.17	66.5733
1331.44	74.9851
1331.71	66.5262
1331.99	67.5496
1332.26	69.6312
1332.53	69.6111
1332.8	66.4326
1333.07	57.9941
1333.35	77.951
1333.62	69.5157
1333.89	66.3413
1334.16	69.4732
1334.43	71.5537
1334.71	75.734
1334.98	64.1679
1335.25	75.6983
1335.52	64.1406
1335.79	67.2751
1336.07	70.4093
1336.34	71.4456
1336.61	69.337
1336.88	67.23
1337.15	69.3182
1337.43	66.1662
1337.7	64.0636
1337.97	69.296
1338.24	74.5171
1338.51	75.5467
1338.78	68.2032
1339.06	69.2383
1339.33	68.183
1339.6	69.2274
1339.87	74.4649
1340.14	72.374
1340.42	73.422
1340.69	63.9989
1340.96	74.4731
1341.23	68.1873
1341.5	75.5141
1341.77	66.0837
1342.04	69.2167
1342.32	70.2517
1342.59	69.1892
1342.86	63.9383
1343.13	64.9669
1343.4	77.5086
1343.67	65.9974
1343.95	76.4529
1344.22	72.2681
1344.49	71.2229
1344.76	68.0847
1345.03	63.8947
1345.3	69.1114
1345.58	72.2312
1345.85	69.0725
1346.12	65.9201
1346.39	70.0746
1346.66	75.2585
1346.93	74.1901
1347.2	72.0806
1347.47	66.8427
1347.75	69.9513
1348.02	67.8528
1348.29	66.8011
1348.56	72.0057
1348.83	67.831
1349.1	69.9037
1349.37	68.8481
1349.65	69.8755
1349.92	66.7377
1350.19	77.1373
1350.46	69.8355
1350.73	71.9037
1351	80.2103
1351.27	76.0278
1351.54	73.9343
1351.81	73.9146
1352.09	78.0676
1352.36	73.9062
1352.63	70.7942
1352.9	72.8891
1353.17	77.0727
1353.44	76.0436
1353.71	83.3982
1353.98	76.1776
1354.25	74.0222
1354.53	80.1503
1354.8	75.9118
1355.07	75.9195
1355.34	78.0033
1355.61	79.0141
1355.88	68.6132
1356.15	82.1418
1356.42	76.9525
1356.69	80.0517
1356.96	81.0817
1357.24	72.7652
1357.51	70.6803
1357.78	83.1307
1358.05	76.8878
1358.32	84.14
1358.59	78.9349
1358.86	80.9961
1359.13	69.5668
1359.4	81.9998
1359.67	73.6904
1359.94	80.9391
1360.22	86.1011
1360.49	81.9292
1360.76	78.7972
1361.03	87.0691
1361.3	72.5595
1361.57	87.0594
1361.84	86.0195
1362.11	87.0496
1362.38	80.8248
1362.65	85.993
1362.92	87.0193
1363.19	85.9802
1363.46	89.0912
1363.73	101.533
1364	89.1163
1364.28	96.3779
1364.55	93.2685
1364.82	108.799
1365.09	99.4652
1365.36	101.518
1365.63	88.0357
1365.9	92.1543
1366.17	90.0631
1366.44	93.1459
1366.71	97.2607
1366.98	93.0956
1367.25	95.1302
1367.52	98.2152
1367.79	92.0043
1368.06	94.0828
1368.33	110.628
1368.6	129.241
1368.87	174.734
1369.15	228.504
1369.41	219.217
1369.68	186.143
1369.95	131.325
1370.23	108.567
1370.5	113.722
1370.77	101.291
1371.04	96.1109
1371.31	98.1586
1371.58	102.262
1371.85	98.0973
1372.12	106.314
1372.39	101.115
1372.66	110.36
1372.93	102.082
1373.2	109.28
1373.47	104.111
1373.74	113.373
1374.01	104.086
1374.28	115.411
1374.55	117.463
1374.82	119.515
1375.09	121.565
1375.36	117.429
1375.63	120.523
1375.9	118.477
1376.17	125.685
1376.44	128.782
1376.71	123.599
1376.98	124.598
1377.25	137.938
1377.52	137.88
1377.79	143.042
1378.06	138.961
1378.33	149.313
1378.6	141.144
1378.87	153.591
1379.14	147.43
1379.41	160.827
1379.68	159.774
1379.95	165.935
1380.22	172.083
1380.49	175.099
1380.76	179.075
1381.03	183.107
1381.3	180.981
1381.57	184.096
1381.84	192.274
1382.11	191.157
1382.38	195.17
1382.65	218.706
1382.92	227.865
1383.19	224.699
1383.46	236.946
1383.73	261.489
1384	275.797
1384.27	314.716
1384.54	343.433
1384.81	413.186
1385.08	470.69
1385.34	580.58
1385.61	763.472
1385.88	1039.8
1386.15	1526.69
1386.42	2311.4
1386.69	3647.05
1386.96	5280.58
1387.23	6827.38
1387.5	6626.97
1387.77	4933.27
1388.04	3039.21
1388.31	1707.79
1388.58	1006.82
1388.85	710.159
1389.12	505.809
1389.39	398.321
1389.66	328.531
1389.93	286.466
1390.2	235.042
1390.46	224.601
1390.73	200.934
1391	184.521
1391.27	184.445
1391.54	177.255
1391.81	171.09
1392.08	165.927
1392.35	151.544
1392.62	139.221
1392.89	142.269
1393.16	138.154
1393.43	135.066
1393.7	130.958
1393.97	128.899
1394.23	122.747
1394.5	122.738
1394.77	127.846
1395.04	114.539
1395.31	118.644
1395.58	112.522
1395.85	125.842
1396.12	121.753
1396.39	113.56
1396.66	112.526
1396.93	108.419
1397.2	107.381
1397.46	99.1753
1397.73	105.294
1398	110.397
1398.27	102.213
1398.54	106.311
1398.81	101.208
1399.08	98.1453
1399.35	98.1499
1399.62	106.352
1399.89	101.246
1400.16	101.256
1400.42	105.348
1400.69	101.268
1400.96	102.317
1401.23	104.376
1401.5	90.0358
1401.77	95.1668
1402.04	103.359
1402.31	104.418
1402.58	96.2757
1402.84	100.437
1403.11	97.4024
1403.38	112.83
1403.65	97.4474
1403.92	104.634
1404.19	106.665
1404.46	112.76
1404.73	107.646
1404.99	113.792
1405.26	120.958
1405.53	117.86
1405.8	129.117
1406.07	135.246
1406.34	136.249
1406.61	146.484
1406.87	167.996
1407.14	181.328
1407.41	214.143
1407.68	236.715
1407.95	297.217
1408.22	330.043
1408.49	399.786
1408.76	400.835
1409.02	395.738
1409.29	345.521
1409.56	284.01
1409.83	225.564
1410.1	193.777
1410.37	151.718
1410.63	146.56
1410.9	123.962
1411.17	109.573
1411.44	108.522
1411.71	98.2569
1411.98	96.1946
1412.25	87.995
1412.51	90.0562
1412.78	91.1066
1413.05	90.1377
1413.32	83.0577
1413.59	77.971
1413.86	80.9905
1414.12	87.0349
1414.39	76.7986
1414.66	74.7972
1414.93	71.7517
1415.2	76.8796
1415.47	79.9619
1415.73	76.8818
1416	70.7234
1416.27	72.7824
1416.54	71.7617
1416.81	72.7953
1417.07	74.8568
1417.34	71.7836
1417.61	69.7369
1417.88	66.6616
1418.15	71.8026
1418.42	72.8312
1418.68	69.751
1418.95	61.5325
1419.22	69.7543
1419.49	65.6444
1419.76	68.7198
1420.02	70.7613
1420.29	65.6105
1420.56	64.5708
1420.83	71.745
1421.1	67.6225
1421.36	64.5302
1421.63	63.4976
1421.9	64.5273
1422.17	67.6241
1422.44	68.6736
1422.7	77.943
1422.97	67.7051
1423.24	67.7628
1423.51	59.5845
1423.77	67.6614
1424.04	65.4686
1424.31	60.3585
1424.58	74.6428
1424.85	65.4222
1425.11	75.6889
1425.38	69.5879
1425.65	74.7248
1425.92	67.5351
1426.19	62.4286
1426.45	59.3461
1426.72	68.5659
1426.99	58.2939
1427.26	58.2772
1427.52	60.3093
1427.79	62.333
1428.06	59.2397
1428.33	47.9664
1428.59	54.106
1428.86	54.1063
1429.13	56.1569
1429.4	59.2333
1429.67	54.1189
1429.93	58.2242
1430.2	55.1625
1430.47	55.1769
1430.74	50.0629
1431	57.2553
1431.27	58.306
1431.54	56.2733
1431.81	59.3617
1432.07	52.1768
1432.34	47.0357
1432.61	55.2317
1432.87	54.197
1433.14	55.2054
1433.41	58.2596
1433.68	56.1849
1433.95	51.0406
1434.21	52.0516
1434.48	53.0697
1434.75	50.0207
1435.01	51.0554
1435.28	55.1559
1435.55	53.1063
1435.82	47.9811
1436.08	53.1016
1436.35	53.0978
1436.62	47.9709
1436.89	43.868
1437.15	50.0094
1437.42	57.1746
1437.69	45.9055
1437.95	54.0932
1438.22	52.0417
1438.49	49.9955
1438.76	45.9053
1439.02	52.0557
1439.29	57.1792
1439.56	45.9119
1439.82	50.0174
1440.09	47.9785
1440.36	51.0672
1440.63	45.9464
1440.89	47.9995
1441.16	53.127
1441.43	50.053
1441.69	45.9469
1441.96	45.9386
1442.23	52.0853
1442.49	47.9939
1442.76	47.9946
1443.03	42.8755
1443.3	38.7673
1443.56	44.9122
1443.83	44.9052
1444.1	49.0006
1444.36	52.0735
1444.63	45.9253
1444.9	42.8617
1445.16	45.9488
1445.43	46.9891
1445.7	48.0106
1445.97	41.8503
1446.23	42.8719
1446.5	43.8934
1446.77	39.7869
1447.03	42.8599
1447.3	44.907
1447.57	45.9272
1447.83	43.8703
1448.1	44.8904
1448.37	43.8644
1448.63	42.8462
1448.9	44.9065
1449.17	47.9858
1449.43	41.8306
1449.7	49.0055
1449.97	42.8458
1450.23	44.8888
1450.5	40.7803
1450.77	41.8012
1451.03	47.9471
1451.3	40.7684
1451.57	38.7147
1451.83	37.6854
1452.1	38.7057
1452.37	37.6776
1452.63	42.7979
1452.9	35.6262
1453.17	35.6273
1453.43	37.6802
1453.7	38.7081
1453.97	39.7326
1454.23	39.7292
1454.5	38.7017
1454.77	42.7999
1455.03	39.7252
1455.3	42.7975
1455.56	43.8187
1455.83	38.6958
1456.1	36.6522
1456.36	41.7798
1456.63	36.6544
1456.9	38.7004
1457.16	34.5944
1457.43	40.7354
1457.7	36.6338
1457.96	35.6063
1458.23	37.6529
1458.49	34.5794
1458.76	40.7261
1459.03	39.7033
1459.29	38.6801
1459.56	33.558
1459.82	32.5335
1460.09	36.6298
1460.36	36.6268
1460.62	37.6479
1460.89	37.6441
1461.16	38.6636
1461.42	39.682
1461.69	40.7002
1461.95	34.5505
1462.22	37.615
1462.49	41.7014
1462.75	37.5991
1463.02	38.6133
1463.28	37.5808
1463.55	37.571
1463.82	36.5399
1464.08	40.6275
1464.35	37.5716
1464.61	38.6116
1464.88	34.5308
1465.15	38.6426
1465.41	34.519
1465.68	35.4762
1465.94	37.4873
1466.21	32.3805
1466.48	35.4524
1466.74	35.4483
1467.01	34.4116
1467.27	35.4263
1467.54	34.4089
1467.8	37.4665
1468.07	35.4229
1468.34	36.4407
1468.6	31.3391
1468.87	35.4178
1469.13	38.475
1469.4	36.4307
1469.67	34.3859
1469.93	34.3786
1470.2	32.331
1470.46	34.3624
1470.73	38.4329
1470.99	36.3899
1471.26	36.3865
1471.53	38.4181
1471.79	33.3173
1472.06	34.3303
1472.32	31.2722
1472.59	34.3251
1472.85	35.3416
1473.12	33.3035
1473.39	32.2821
1473.65	34.3125
1473.92	35.3245
1474.18	31.2486
1474.45	30.2279
1474.71	37.3506
1474.98	32.2646
1475.24	31.2483
1475.51	32.2658
1475.78	36.3352
1476.04	35.3135
1476.31	36.3255
1476.57	36.3212
1476.84	30.2129
1477.1	31.2245
1477.37	35.2869
1477.63	36.3002
1477.9	29.1794
1478.16	36.2965
1478.43	37.3084
1478.69	35.267
1478.96	34.2446
1479.22	34.2387
1479.49	34.2321
1479.76	31.1769
1480.02	31.1693
1480.29	30.1463
1480.55	34.1954
1480.82	35.1996
1481.08	34.1771
1481.35	36.2024
1481.61	34.1665
1481.88	32.1399
1482.14	33.1591
1482.41	30.1198
1482.67	31.1405
1482.94	30.1294
1483.2	35.2049
1483.47	32.1624
1483.73	32.1638
1484	35.2096
1484.26	28.0996
1484.53	31.1324
1484.79	34.1574
1485.06	28.0393
1485.32	35.0843
1485.59	32.0316
1485.85	35.0381
1486.12	32.0803
1486.38	31.0754
1486.65	34.128
1486.91	36.116
1487.18	37.1472
1487.44	31.0718
1487.71	34.1011
1487.97	39.1567
1488.24	32.0613
1488.5	33.0678
1488.77	30.0226
1489.03	35.0751
1489.3	30.008
1489.56	30.0039
1489.83	33.0357
1490.09	32.021
1490.36	32.02
1490.62	29.9955
1490.89	33.0256
1491.15	28.9728
1491.42	33.0108
1491.68	30.9848
1491.95	33.0046
1492.21	34.0148
1492.48	31.9934
1492.74	28.9586
1493	28.9562
1493.27	27.9436
1493.53	30.9755
1493.8	35.016
1494.06	28.9489
1494.33	28.9486
1494.59	27.9389
1494.86	31.9845
1495.12	36.0263
1495.39	31.9765
1495.65	28.9346
1495.92	28.9232
1496.18	32.9534
1496.45	32.9465
1496.71	30.9221
1496.97	32.9363
1497.24	31.9217
1497.5	29.9021
1497.77	32.9288
1498.03	28.8893
1498.3	32.9246
1498.56	31.9149
1498.82	34.9426
1499.09	35.9523
1499.35	27.8786
1499.62	34.9454
1499.88	36.9667
1500.15	32.9309
1500.41	32.9314
1500.68	31.9208
1500.94	32.9285
1501.2	29.8981
1501.47	32.9223
1501.73	33.9243
1502	32.9122
1502.26	31.9013
1502.52	32.9084
1502.79	31.8954
1503.05	36.9317
1503.32	29.8634
1503.58	35.9099
1503.85	30.8611
1504.11	32.8768
1504.37	34.896
1504.64	34.8969
1504.9	35.9049
1505.17	27.8352
1505.43	34.8896
1505.7	31.859
1505.96	30.8412
1506.22	33.8518
1506.49	31.8338
1506.75	29.8172
1507.02	34.8551
1507.28	24.7833
1507.54	27.8064
1507.81	30.8301
1508.07	27.8059
1508.34	33.849
1508.6	32.8388
1508.86	35.8615
1509.13	34.8544
1509.39	34.8542
1509.66	30.8224
1509.92	35.8596
1510.18	35.8629
1510.45	28.8098
1510.71	32.8339
1510.98	32.8267
1511.24	32.8182
1511.5	31.8012
1511.77	33.8004
1512.03	26.7396
1512.29	32.7574
1512.56	31.7352
1512.82	29.7117
1513.08	28.6987
1513.35	34.7157
1513.61	32.7004
1513.88	30.6892
1514.14	29.6917
1514.4	28.6983
1514.67	32.7185
1514.93	29.7007
1515.2	25.6762
1515.46	27.6763
1515.72	29.6757
1515.99	33.6792
1516.25	32.6652
1516.51	36.6689
1516.78	30.6477
1517.04	32.6499
1517.3	24.6258
1517.57	35.6531
1517.83	29.6372
1518.09	29.6386
1518.36	29.6434
1518.62	31.6501
1518.88	33.6577
1519.15	32.6559
1519.41	28.6454
1519.67	31.6567
1519.94	29.6509
1520.2	31.656
1520.47	31.6523
1520.73	34.6587
1520.99	33.6568
1521.26	30.6496
1521.52	36.6719
1521.78	35.669
1522.05	32.6567
1522.31	31.6497
1522.57	31.6453
1522.84	32.6437
1523.1	31.6366
1523.36	32.6332
1523.62	28.6125
1523.89	34.6128
1524.15	29.5934
1524.41	29.5863
1524.68	28.5788
1524.94	35.5825
1525.2	29.5774
1525.47	33.5839
1525.73	29.5784
1525.99	32.587
1526.26	33.5943
1526.52	37.6111
1526.78	30.602
1527.05	32.6086
1527.31	31.6047
1527.57	35.6083
1527.84	31.5965
1528.1	31.593
1528.36	33.5936
1528.63	32.5868
1528.89	29.5772
1529.15	35.5839
1529.41	33.578
1529.68	28.5684
1529.94	29.5673
1530.2	29.5617
1530.47	31.5623
