#Acq. time (s)=	30
#Accumulations=	2
#Range (cm-¹)=	1200...2365
#Windows=	3
#Auto scanning=	Off
#Autofocus=	Off
#Macrospot=	Off
#AutoExposure=	Off
#Spike filter=	Multiple accum.
#Delay time (s)=	2
#Binning=	1
#Readout mode=	Signal
#DeNoise=	Off
#ICS correction=	On
#Dark correction=	Off
#Inst. Process=	Off
#Detector Gain=	Best Dynamic
#Detector ADC=	50 kHz HS
#Detector temperature (°C)=	-60.09
#Instrument=	LabRAM HR Evol
#Detector=	SIN-EM FIVIS
#Objective=	x100_VIS_LWD
#Grating=	1800 (450-850nm)
#ND Filter=	100%
#Laser=	532nm_Edge
#Hole=	100.021
#Temperature=	0
#Range=	Visible
#StageXY=	75x50mm Scan+
#StageZ=	Z motor
#X (µm)=	0
#Y (µm)=	0
#Z (µm)=	-47.2
#Full time(mm:ss)=	3:22
#Project=	21_11_26
#Sample=	BU19(2)w
#Site=	
#Title=	BU19(2)w-A-FF1-FI01-V_1800 (450-850nm)_532nm_Edge_100%_x100_VIS_LWD_H100um_30sX2
#Remark=	
#Date=	26.11.2021 11:36
#Acquired=	26.11.2021 11:36:17
1202.72	63.9874
1203	67.3084
1203.28	64.0964
1203.56	65.1324
1203.84	62.9284
1204.11	65.0463
1204.39	58.5688
1204.67	61.7941
1204.95	76.8505
1205.23	66.0841
1205.5	68.2054
1205.78	69.2489
1206.06	61.6993
1206.34	62.7402
1206.61	70.2161
1206.89	60.5323
1207.17	59.4297
1207.45	61.5463
1207.73	66.8824
1208	66.8638
1208.28	67.9209
1208.56	67.9045
1208.84	60.3925
1209.11	57.1648
1209.39	65.7019
1209.67	59.2764
1209.95	60.3407
1210.23	67.816
1210.5	66.7309
1210.78	63.4955
1211.06	63.4676
1211.34	66.6475
1211.61	61.2837
1211.89	64.4636
1212.17	64.4352
1212.45	63.3419
1212.72	61.1907
1213	62.2358
1213.28	69.6706
1213.56	55.8102
1213.83	66.4485
1214.11	68.561
1214.39	63.2386
1214.67	64.3031
1214.94	56.8488
1215.22	66.4278
1215.5	65.358
1215.78	62.1586
1216.05	58.9576
1216.33	69.5819
1216.61	58.9164
1216.89	62.0785
1217.16	67.3659
1217.44	56.7166
1217.72	58.8223
1218	57.7408
1218.27	57.7249
1218.55	59.8325
1218.83	59.8174
1219.1	62.9914
1219.38	58.7401
1219.66	59.793
1219.94	64.0265
1220.21	65.0733
1220.49	61.8868
1220.77	58.7025
1221.04	61.8785
1221.32	59.7488
1221.6	61.8562
1221.88	57.6021
1222.15	59.7024
1222.43	66.0329
1222.71	60.7056
1222.98	60.6727
1223.26	56.4098
1223.54	64.8407
1223.81	59.5264
1224.09	61.6161
1224.37	54.1984
1224.65	56.2944
1224.92	60.5041
1225.2	58.3822
1225.48	65.767
1225.76	57.327
1226.03	62.6096
1226.31	64.7271
1226.59	55.2179
1226.86	71.0486
1227.14	63.6433
1227.42	59.4081
1227.69	66.7591
1227.97	63.5306
1228.25	57.1701
1228.52	61.3454
1228.8	63.3877
1229.08	60.1842
1229.35	64.3798
1229.63	58.217
1229.91	60.4499
1230.18	67.7723
1230.46	60.3304
1230.74	65.5724
1231.01	61.3638
1231.29	58.1669
1231.57	61.2016
1231.84	66.4645
1232.12	62.2574
1232.4	61.2019
1232.67	66.4454
1232.95	55.9349
1233.23	62.2326
1233.5	67.4764
1233.78	68.5226
1234.06	64.3218
1234.33	65.3757
1234.61	61.1769
1234.89	64.336
1235.16	63.2931
1235.44	70.6535
1235.71	63.2991
1235.99	61.2017
1236.27	65.4099
1236.54	55.9436
1236.82	62.2417
1237.1	65.3827
1237.37	69.5694
1237.65	63.2401
1237.93	68.4656
1238.2	65.2892
1238.48	68.4112
1238.76	71.531
1239.03	64.1675
1239.31	67.2994
1239.58	65.1909
1239.86	64.1332
1240.14	63.0782
1240.41	62.0254
1240.69	62.0226
1240.97	63.0701
1241.24	66.2157
1241.52	68.3122
1241.79	68.3035
1242.07	70.3846
1242.35	70.374
1242.62	65.1331
1242.9	60.9427
1243.18	66.1895
1243.45	75.6304
1243.73	69.3372
1244	64.094
1244.28	76.6758
1244.56	60.9474
1244.83	68.2787
1245.11	66.1732
1245.39	73.4918
1245.66	69.28
1245.94	66.1114
1246.21	73.4155
1246.49	67.1217
1246.76	73.3942
1247.04	69.2051
1247.32	72.3413
1247.59	79.659
1247.87	75.4685
1248.14	72.3183
1248.42	78.5654
1248.7	77.5017
1248.97	79.5871
1249.25	79.5894
1249.52	78.5469
1249.8	76.4472
1250.08	77.4881
1250.35	76.4405
1250.63	79.5589
1250.9	68.0363
1251.18	74.2895
1251.45	69.0475
1251.73	78.4358
1252.01	72.1521
1252.28	80.4916
1252.56	79.43
1252.83	77.3245
1253.11	76.2617
1253.39	73.1138
1253.66	75.1911
1253.94	79.3629
1254.21	79.3731
1254.49	80.4296
1254.76	77.3123
1255.04	73.1397
1255.31	82.5349
1255.59	86.7159
1255.87	78.3592
1256.14	76.2645
1256.42	73.1326
1256.69	80.4464
1256.97	85.6782
1257.24	86.7244
1257.52	82.5394
1257.79	90.8798
1258.07	95.0462
1258.35	107.566
1258.62	105.467
1258.9	98.1445
1259.17	98.1188
1259.45	101.245
1259.72	100.21
1260	101.267
1260.27	98.1729
1260.55	111.719
1260.82	100.206
1261.1	110.603
1261.37	113.703
1261.65	120.983
1261.92	128.301
1262.2	134.678
1262.48	144.262
1262.75	151.673
1263.02	161.867
1263.3	184.62
1263.58	184.533
1263.85	184.711
1264.13	210.964
1264.4	195.477
1264.68	188.251
1264.95	179.767
1265.23	169.268
1265.5	152.543
1265.78	134.762
1266.05	127.42
1266.33	120.103
1266.6	109.66
1266.88	105.492
1267.15	102.374
1267.43	110.759
1267.7	113.924
1267.98	102.447
1268.25	95.1537
1268.53	93.0999
1268.8	97.3206
1269.08	102.575
1269.35	98.3984
1269.63	88.9782
1269.9	103.639
1270.18	93.1382
1270.45	96.2486
1270.73	98.3195
1271	101.433
1271.28	102.46
1271.55	104.543
1271.83	97.2026
1272.1	96.1611
1272.38	102.461
1272.65	103.534
1272.93	99.3825
1273.2	99.406
1273.47	101.526
1273.75	94.2133
1274.03	98.4296
1274.3	96.3559
1274.57	102.663
1274.85	97.4205
1275.12	103.707
1275.4	106.852
1275.67	111.058
1275.95	110.024
1276.22	104.794
1276.5	110.066
1276.77	102.734
1277.05	122.703
1277.32	105.915
1277.6	113.292
1277.87	126.976
1278.14	113.342
1278.42	122.822
1278.69	122.843
1278.97	124.979
1279.24	134.464
1279.52	142.9
1279.79	166.032
1280.07	154.446
1280.34	174.408
1280.61	192.278
1280.89	221.74
1281.16	249.108
1281.44	295.463
1281.71	371.332
1281.99	473.485
1282.26	634.52
1282.53	823.012
1282.81	1070.52
1283.08	1385.08
1283.36	1700.04
1283.63	1960.3
1283.91	2169.75
1284.18	2254.81
1284.45	2164.54
1284.73	1823.46
1285	1437.06
1285.28	1044
1285.55	760.183
1285.83	512.503
1286.1	398.802
1286.37	308.32
1286.65	244.077
1286.92	218.76
1287.2	179.799
1287.47	166.099
1287.75	166.072
1288.02	154.463
1288.29	139.711
1288.57	140.76
1288.84	134.447
1289.12	130.244
1289.39	128.156
1289.66	116.596
1289.94	117.669
1290.21	116.638
1290.49	117.709
1290.76	101.905
1291.03	111.371
1291.31	89.2447
1291.58	99.7732
1291.86	115.568
1292.13	111.349
1292.4	98.709
1292.68	103.979
1292.95	102.918
1293.22	100.801
1293.5	99.7508
1293.77	97.6741
1294.05	84.0109
1294.32	93.5342
1294.59	97.761
1294.87	95.6499
1295.14	90.3685
1295.42	97.7652
1295.69	98.8595
1295.96	86.2434
1296.24	98.9804
1296.51	94.792
1296.79	93.7427
1297.06	92.6859
1297.33	87.389
1297.61	87.3714
1297.88	90.5207
1298.15	85.2163
1298.43	86.2473
1298.7	85.1991
1298.97	85.19
1299.25	90.4528
1299.52	88.3266
1299.79	79.8655
1300.07	84.0845
1300.34	83.0413
1300.62	92.5503
1300.89	81.9917
1301.16	84.0972
1301.44	79.8685
1301.71	74.5909
1301.98	77.7694
1302.25	84.1166
1302.53	91.5156
1302.8	80.9527
1303.08	75.6677
1303.35	78.8292
1303.62	77.762
1303.9	85.1372
1304.17	80.9082
1304.44	85.1314
1304.72	80.9055
1304.99	86.1819
1305.26	89.3364
1305.54	74.5394
1305.81	85.0739
1306.08	78.7215
1306.35	80.8096
1306.63	76.5723
1306.9	79.727
1307.18	77.6152
1307.45	74.4557
1307.72	71.2913
1308	76.5616
1308.27	76.5587
1308.54	74.451
1308.81	76.5536
1309.09	76.5555
1309.36	83.9499
1309.63	75.5188
1309.91	79.7486
1310.18	80.8091
1310.45	81.86
1310.73	72.355
1311	85.0159
1311.27	73.4089
1311.55	72.3551
1311.82	80.7995
1312.09	76.5818
1312.37	72.37
1312.64	77.6577
1312.91	78.7167
1313.18	71.3197
1313.46	70.2502
1313.73	67.0784
1314	68.1255
1314.28	71.2846
1314.55	74.4487
1314.82	74.4509
1315.09	73.4003
1315.37	68.1281
1315.64	68.134
1315.91	74.4773
1316.18	76.5973
1316.46	69.1983
1316.73	72.3599
1317	77.6349
1317.28	73.4061
1317.55	67.0673
1317.82	70.2433
1318.09	80.8111
1318.37	71.3065
1318.64	69.1942
1318.91	72.3628
1319.18	74.4737
1319.46	74.4692
1319.73	73.4074
1320	73.4024
1320.28	73.405
1320.55	78.6859
1320.82	73.3972
1321.09	64.9341
1321.37	61.749
1321.64	68.0632
1321.91	61.7068
1322.18	72.2451
1322.46	65.8927
1322.73	76.4289
1323	69.0335
1323.27	66.9118
1323.55	76.3848
1323.82	70.065
1324.09	71.1202
1324.36	74.2824
1324.64	73.2233
1324.91	72.1677
1325.18	74.272
1325.45	65.8385
1325.73	68.9817
1326	67.8942
1326.27	67.8523
1326.54	72.0107
1326.81	66.7265
1327.09	66.719
1327.36	67.7915
1327.63	70.9936
1327.9	65.7494
1328.18	78.4162
1328.45	68.9566
1328.72	73.2
1328.99	67.9463
1329.27	69.0055
1329.54	70.0494
1329.81	66.8893
1330.08	64.774
1330.35	74.2606
1330.63	67.9197
1330.9	71.0685
1331.17	66.8316
1331.44	62.5928
1331.71	70.9949
1331.99	61.4825
1332.26	74.0924
1332.53	74.0692
1332.8	75.0963
1333.07	75.0678
1333.35	68.7294
1333.62	70.8065
1333.89	71.8332
1334.16	73.9111
1334.43	73.8879
1334.71	69.6659
1334.98	71.7458
1335.25	60.1836
1335.52	66.4652
1335.79	62.2536
1336.07	68.5337
1336.34	67.4709
1336.61	69.5555
1336.88	67.4466
1337.15	64.2913
1337.43	70.5721
1337.7	67.4192
1337.97	65.3132
1338.24	72.6289
1338.51	69.4669
1338.78	62.1224
1339.06	63.1567
1339.33	67.3358
1339.6	66.2843
1339.87	69.4258
1340.14	70.4744
1340.42	68.3791
1340.69	71.5211
1340.96	69.4265
1341.23	72.5645
1341.5	64.181
1341.77	73.5983
1342.04	65.2114
1342.32	74.6201
1342.59	69.3682
1342.86	66.208
1343.13	66.188
1343.4	64.0844
1343.67	68.2605
1343.95	57.7973
1344.22	66.1611
1344.49	71.3892
1344.76	74.5244
1345.03	71.3778
1345.3	71.3635
1345.58	69.2541
1345.85	69.2295
1346.12	73.3884
1346.39	67.0943
1346.66	75.4092
1346.93	65.9902
1347.2	73.2705
1347.47	72.202
1347.75	60.71
1348.02	61.7387
1348.29	70.0669
1348.56	64.8471
1348.83	70.0507
1349.1	70.0371
1349.37	70.0215
1349.65	74.1716
1349.92	67.9068
1350.19	67.8919
1350.46	67.8773
1350.73	67.8623
1351	61.5993
1351.27	68.8635
1351.54	75.0907
1351.81	81.3083
1352.09	63.6222
1352.36	69.8577
1352.63	78.1831
1352.9	76.1174
1353.17	70.9361
1353.44	74.0671
1353.71	66.8376
1353.98	72.1108
1354.25	72.0397
1354.53	70.8878
1354.8	68.7339
1355.07	70.8173
1355.34	71.8599
1355.61	72.8708
1355.88	74.932
1356.15	78.0721
1356.42	68.7249
1356.69	74.9402
1356.96	71.8142
1357.24	73.8827
1357.51	79.0653
1357.78	71.7839
1358.05	77.9994
1358.32	74.8692
1358.59	77.9666
1358.86	82.1015
1359.13	78.9698
1359.4	73.7656
1359.67	72.7153
1359.94	77.8884
1360.22	79.939
1360.49	80.949
1360.76	81.9598
1361.03	71.5824
1361.3	76.7535
1361.57	77.7857
1361.84	80.8876
1362.11	80.8805
1362.38	69.4765
1362.65	84.9992
1362.92	83.953
1363.19	82.9122
1363.46	80.8442
1363.73	81.8915
1364	88.114
1364.28	87.0868
1364.55	92.2628
1364.82	94.3258
1365.09	83.9562
1365.36	96.3648
1365.63	91.1643
1365.9	93.2101
1366.17	90.0819
1366.44	92.1282
1366.71	94.1726
1366.98	90.0065
1367.25	88.9389
1367.52	82.7213
1367.79	83.7441
1368.06	88.9207
1368.33	88.9252
1368.6	97.198
1368.87	101.337
1369.15	120.983
1369.41	152.009
1369.68	177.867
1369.95	181.979
1370.23	169.551
1370.5	131.284
1370.77	100.246
1371.04	101.264
1371.31	105.375
1371.58	89.8511
1371.85	91.8833
1372.12	95.9723
1372.39	100.059
1372.66	95.8965
1372.93	96.8996
1373.2	92.7571
1373.47	94.8036
1373.74	90.6669
1374.01	100.96
1374.28	91.6753
1374.55	97.8481
1374.82	99.8997
1375.09	100.92
1375.36	105.025
1375.63	101.936
1375.9	99.8863
1376.17	106.063
1376.44	106.066
1376.71	107.067
1376.98	118.365
1377.25	111.117
1377.52	113.126
1377.79	118.284
1378.06	104.93
1378.33	117.327
1378.6	108.111
1378.87	111.261
1379.14	119.526
1379.41	117.457
1379.68	122.593
1379.95	118.45
1380.22	125.637
1380.49	126.61
1380.76	125.476
1381.03	135.703
1381.3	138.734
1381.57	148.012
1381.84	150.028
1382.11	155.094
1382.38	158.096
1382.65	165.215
1382.92	163.1
1383.19	173.296
1383.46	183.503
1383.73	199.855
1384	206.995
1384.27	226.443
1384.54	263.357
1384.81	289.011
1385.08	315.725
1385.34	378.385
1385.61	473.968
1385.88	600.35
1386.15	796.581
1386.42	1135.55
1386.69	1667.79
1386.96	2474.27
1387.23	3498.29
1387.5	4479.77
1387.77	4982.31
1388.04	4638.47
1388.31	3612.73
1388.58	2400.33
1388.85	1552.42
1389.12	963.296
1389.39	671.288
1389.66	490.626
1389.93	375.668
1390.2	305.733
1390.46	260.359
1390.73	235.652
1391	202.83
1391.27	188.396
1391.54	173.004
1391.81	164.788
1392.08	162.699
1392.35	139.096
1392.62	149.303
1392.89	140.06
1393.16	135.943
1393.43	130.807
1393.7	123.627
1393.97	128.731
1394.23	121.554
1394.5	109.264
1394.77	119.487
1395.04	124.596
1395.31	103.118
1395.58	116.438
1395.85	105.19
1396.12	112.359
1396.39	111.329
1396.66	109.27
1396.93	110.279
1397.2	109.239
1397.46	103.077
1397.73	109.193
1398	97.9292
1398.27	103.04
1398.54	94.8616
1398.81	99.9857
1399.08	106.129
1399.35	106.132
1399.62	95.9153
1399.89	97.9706
1400.16	106.166
1400.42	101.045
1400.69	101.057
1400.96	93.9134
1401.23	95.9705
1401.5	88.7965
1401.77	95.9741
1402.04	95.9711
1402.31	99.0752
1402.58	92.9794
1402.84	109.446
1403.11	100.257
1403.38	96.1817
1403.65	98.2477
1403.92	100.3
1404.19	95.1446
1404.46	109.45
1404.73	113.568
1404.99	114.582
1405.26	104.308
1405.53	114.544
1405.8	121.698
1406.07	114.497
1406.34	131.904
1406.61	140.088
1406.87	152.374
1407.14	147.254
1407.41	164.689
1407.68	174.952
1407.95	209.818
1408.22	223.158
1408.49	243.676
1408.76	264.196
1409.02	301.132
1409.29	306.286
1409.56	304.259
1409.83	280.689
1410.1	229.412
1410.37	205.817
1410.63	179.109
1410.9	153.424
1411.17	128.773
1411.44	111.319
1411.71	113.347
1411.98	115.379
1412.25	95.9078
1412.51	82.5993
1412.78	101.07
1413.05	80.6207
1413.32	82.7702
1413.59	84.8742
1413.86	85.8326
1414.12	84.6902
1414.39	66.2478
1414.66	77.5793
1414.93	81.7207
1415.2	80.6865
1415.47	73.5006
1415.73	73.4988
1416	71.4455
1416.27	70.4226
1416.54	77.6153
1416.81	75.5669
1417.07	64.2746
1417.34	66.3347
1417.61	77.6417
1417.88	68.4007
1418.15	70.4577
1418.42	67.3742
1418.68	70.4578
1418.95	66.3484
1419.22	75.5964
1419.49	64.2909
1419.76	66.337
1420.02	70.4318
1420.29	64.2519
1420.56	63.2105
1420.83	66.2756
1421.1	64.2055
1421.36	74.4557
1421.63	68.2886
1421.9	68.2906
1422.17	71.3871
1422.44	69.3554
1422.7	71.432
1422.97	66.3294
1423.24	64.3278
1423.51	64.3839
1423.77	66.2806
1424.04	67.1618
1424.31	71.2802
1424.58	59.9382
1424.85	67.1082
1425.11	63.0266
1425.38	61.0181
1425.65	58.9727
1425.92	63.0641
1426.19	70.2656
1426.45	64.1033
1426.72	59.9869
1426.99	57.918
1427.26	64.0501
1427.52	60.9544
1427.79	65.0243
1428.06	57.8317
1428.33	59.8678
1428.59	59.8617
1428.86	64.9798
1429.13	60.8858
1429.4	58.8408
1429.67	63.9665
1429.93	52.7068
1430.2	48.6181
1430.47	57.8528
1430.74	54.7882
1431	58.9047
1431.27	60.9808
1431.54	58.9479
1431.81	50.7452
1432.07	52.796
1432.34	55.8623
1432.61	53.7946
1432.87	53.7841
1433.14	53.765
1433.41	52.7169
1433.68	54.7411
1433.95	55.7409
1434.21	55.7247
1434.48	56.7407
1434.75	46.5211
1435.01	52.6771
1435.28	54.7266
1435.55	48.5764
1435.82	48.573
1436.08	54.7165
1436.35	52.6615
1436.62	53.6802
1436.89	54.6973
1437.15	51.6165
1437.42	52.634
1437.69	47.5089
1437.95	54.6704
1438.22	49.5448
1438.49	49.5451
1438.76	53.6481
1439.02	48.5289
1439.29	57.7485
1439.56	57.7495
1439.82	45.4603
1440.09	49.5685
1440.36	47.5303
1440.63	48.5596
1440.89	56.7639
1441.16	50.61
1441.43	48.5597
1441.69	53.6809
1441.96	51.6189
1442.23	45.4609
1442.49	46.4938
1442.76	47.5183
1443.03	46.5003
1443.3	48.543
1443.56	45.456
1443.83	49.5479
1444.1	50.5657
1444.36	47.4862
1444.63	48.5122
1444.9	47.499
1445.16	50.586
1445.43	50.6006
1445.7	51.6199
1445.97	46.4833
1446.23	48.5285
1446.5	50.5735
1446.77	46.4647
1447.03	56.7145
1447.3	48.5037
1447.57	47.471
1447.83	43.3614
1448.1	42.3294
1448.37	41.3016
1448.63	46.4337
1448.9	45.4167
1449.17	53.6227
1449.43	44.3888
1449.7	51.5617
1449.97	44.3744
1450.23	46.4151
1450.5	45.3798
1450.77	39.2232
1451.03	45.3675
1451.3	46.3864
1451.57	46.38
1451.83	44.3234
1452.1	40.2181
1452.37	46.3599
1452.63	47.3801
1452.9	50.4522
1453.17	44.3049
1453.43	45.3326
1453.7	42.2604
1453.97	48.4075
1454.23	46.3522
1454.5	45.3226
1454.77	38.1473
1455.03	41.2192
1455.3	43.265
1455.56	40.1858
1455.83	40.1844
1456.1	41.2143
1456.36	45.3158
1456.63	45.3135
1456.9	47.357
1457.16	48.371
1457.43	51.4343
1457.7	48.3546
1457.96	44.2514
1458.23	31.9548
1458.49	40.1477
1458.76	37.0732
1459.03	49.3668
1459.29	44.2443
1459.56	43.219
1459.82	48.3407
1460.09	38.0909
1460.36	42.184
1460.62	36.0319
1460.89	42.1725
1461.16	43.1896
1461.42	40.1091
1461.69	40.1013
1461.95	43.1645
1462.22	42.1309
1462.49	40.0735
1462.75	45.1792
1463.02	45.1666
1463.28	42.0849
1463.55	39.0041
1463.82	37.9707
1464.08	38.9893
1464.35	46.1587
1464.61	43.1091
1464.88	44.1464
1465.15	43.1417
1465.41	37.9886
1465.68	33.8278
1465.94	45.0225
1466.21	43.995
1466.48	37.8821
1466.74	37.8759
1467.01	39.8965
1467.27	40.9087
1467.54	39.8902
1467.8	36.8247
1468.07	38.8597
1468.34	40.8957
1468.6	36.8123
1468.87	38.8491
1469.13	37.8244
1469.4	40.8777
1469.67	38.8306
1469.93	30.6638
1470.2	37.789
1470.46	41.8556
1470.73	39.8092
1470.99	38.783
1471.26	38.7776
1471.53	39.7883
1471.79	37.7407
1472.06	35.6961
1472.32	43.8373
1472.59	35.6871
1472.85	43.8295
1473.12	40.7712
1473.39	43.8199
1473.65	36.685
1473.92	36.6768
1474.18	40.7406
1474.45	40.7351
1474.71	37.6796
1474.98	31.5743
1475.24	39.7167
1475.51	39.7148
1475.78	40.7289
1476.04	39.7049
1476.31	40.7145
1476.57	43.7603
1476.84	44.7713
1477.1	36.6235
1477.37	44.7514
1477.63	38.6431
1477.9	42.7071
1478.16	36.6019
1478.43	37.6118
1478.69	38.6183
1478.96	40.6429
1479.22	40.6341
1479.49	42.6568
1479.76	42.6459
1480.02	39.5865
1480.29	44.6531
1480.55	41.5884
1480.82	40.5584
1481.08	42.577
1481.35	34.4535
1481.61	41.546
1481.88	33.4312
1482.14	37.4933
1482.41	43.5875
1482.67	36.4888
1482.94	29.3855
1483.2	34.4593
1483.47	39.5384
1483.73	36.4923
1484	40.5519
1484.26	41.5635
1484.53	38.4983
1484.79	40.5021
1485.06	35.3871
1485.32	41.4062
1485.59	38.3479
1485.85	33.2602
1486.12	35.3662
1486.38	46.5219
1486.65	39.4414
1486.91	41.4204
1487.18	40.427
1487.44	40.431
1487.71	33.3243
1487.97	40.4038
1488.24	41.4081
1488.5	38.3609
1488.77	41.3866
1489.03	40.3615
1489.3	43.3869
1489.56	38.3203
1489.83	34.2674
1490.09	30.2158
1490.36	37.2947
1490.62	37.2917
1490.89	43.3537
1491.15	35.2515
1491.42	38.2751
1491.68	40.2908
1491.95	43.3195
1492.21	32.1959
1492.48	40.2833
1492.74	35.2244
1493	41.2858
1493.27	33.1944
1493.53	33.1919
1493.8	37.2304
1494.06	40.2589
1494.33	39.2462
1494.59	37.2247
1494.86	33.1816
1495.12	40.2544
1495.39	40.2451
1495.65	34.1672
1495.92	37.182
1496.18	35.1484
1496.45	39.1778
1496.71	36.1411
1496.97	38.1527
1497.24	38.1447
1497.5	35.1141
1497.77	37.1298
1498.03	39.1435
1498.3	41.1585
1498.56	32.0736
1498.82	32.0719
1499.09	34.0891
1499.35	37.1161
1499.62	38.1256
1499.88	37.1173
1500.15	39.1373
1500.41	34.0884
1500.68	36.1049
1500.94	35.0916
1501.2	35.0879
1501.47	40.1285
1501.73	45.164
1502	30.0211
1502.26	35.0634
1502.52	37.0776
1502.79	33.0354
1503.05	37.0606
1503.32	37.0503
1503.58	37.0432
1503.85	38.042
1504.11	39.0476
1504.37	37.0324
1504.64	37.0317
1504.9	38.038
1505.17	39.0421
1505.43	35.0021
1505.7	33.9858
1505.96	35.9888
1506.22	40.0028
1506.49	45.0347
1506.75	33.9491
1507.02	38.9856
1507.28	37.9815
1507.54	38.9883
1507.81	35.9646
1508.07	36.9694
1508.34	35.9567
1508.6	35.9521
1508.86	32.9276
1509.13	36.957
1509.39	35.9475
1509.66	41.9903
1509.92	39.9724
1510.18	35.9436
1510.45	44.0062
1510.71	36.9415
1510.98	31.8942
1511.24	35.9126
1511.5	36.9064
1511.77	38.9011
1512.03	35.8589
1512.29	42.8748
1512.56	37.8251
1512.82	34.7919
1513.08	37.7927
1513.35	31.7564
1513.61	41.7864
1513.88	33.7497
1514.14	37.772
1514.4	37.7851
1514.67	38.7911
1514.93	36.7751
1515.2	37.7679
1515.46	43.7783
1515.72	30.7162
1515.99	41.7409
1516.25	33.7005
1516.51	32.6875
1516.78	38.6983
1517.04	36.6871
1517.3	38.6873
1517.57	40.689
1517.83	37.6794
1518.09	36.6771
1518.36	32.6702
1518.62	40.6933
1518.88	32.6697
1519.15	31.6663
1519.41	40.6954
1519.67	28.6573
1519.94	36.6828
1520.2	41.6959
1520.47	34.6671
1520.73	34.662
1520.99	31.6521
1521.26	40.6826
1521.52	36.6706
1521.78	36.6695
1522.05	36.6655
1522.31	40.6726
1522.57	32.64
1522.84	34.6394
1523.1	38.6449
1523.36	33.6216
1523.62	32.6058
1523.89	33.5915
1524.15	35.5831
1524.41	35.5726
1524.68	34.5619
1524.94	39.5602
1525.2	41.5654
1525.47	37.5591
1525.73	31.5491
1525.99	34.5566
1526.26	41.574
1526.52	31.5622
1526.78	40.5877
1527.05	37.5815
1527.31	37.5781
1527.57	40.5766
1527.84	35.5605
1528.1	31.5465
1528.36	34.5472
1528.63	33.5384
1528.89	38.541
1529.15	35.5298
1529.41	40.5336
1529.68	36.5239
1529.94	37.5204
1530.2	35.5087
1530.47	33.5018
1530.73	38.51
