#Acq. time (s)=	30
#Accumulations=	2
#Range (cm-¹)=	1200...2365
#Windows=	3
#Auto scanning=	Off
#Autofocus=	Off
#Macrospot=	Off
#AutoExposure=	Off
#Spike filter=	Multiple accum.
#Delay time (s)=	2
#Binning=	1
#Readout mode=	Signal
#DeNoise=	Off
#ICS correction=	On
#Dark correction=	Off
#Inst. Process=	Off
#Detector Gain=	Best Dynamic
#Detector ADC=	50 kHz HS
#Detector temperature (°C)=	-60.09
#Instrument=	LabRAM HR Evol
#Detector=	SIN-EM FIVIS
#Objective=	x100_VIS_LWD
#Grating=	1800 (450-850nm)
#ND Filter=	100%
#Laser=	532nm_Edge
#Hole=	100.021
#Temperature=	0
#Range=	Visible
#StageXY=	75x50mm Scan+
#StageZ=	Z motor
#X (µm)=	0
#Y (µm)=	0
#Z (µm)=	12.5
#Full time(mm:ss)=	3:23
#Project=	21_11_26
#Sample=	BU19(2)w
#Site=	
#Title=	BU19(2)w-A-FF2-FI01-V_1800 (450-850nm)_532nm_Edge_100%_x100_VIS_LWD_H100um_30sX2
#Remark=	
#Date=	26.11.2021 14:18
#Acquired=	26.11.2021 14:18:21
1202.72	97.3254
1203	100.693
1203.28	109.342
1203.56	101.736
1203.84	100.579
1204.11	101.603
1204.39	102.634
1204.67	100.486
1204.95	96.1933
1205.23	114.445
1205.5	93.9818
1205.78	107.902
1206.06	107.848
1206.34	94.9165
1206.61	98.0861
1206.89	105.541
1207.17	108.702
1207.45	95.8025
1207.73	101.129
1208	111.807
1208.28	102.151
1208.56	107.477
1208.84	101.022
1209.11	102.061
1209.39	96.6842
1209.67	98.8072
1209.95	95.5922
1210.23	103.063
1210.5	99.8322
1210.78	102.992
1211.06	101.879
1211.34	98.6401
1211.61	103.935
1211.89	108.168
1212.17	97.4564
1212.45	97.4153
1212.72	96.3194
1213	95.2223
1213.28	94.1249
1213.56	103.687
1213.83	102.605
1214.11	94.0633
1214.39	103.646
1214.67	90.8699
1214.94	101.514
1215.22	100.445
1215.5	105.76
1215.78	103.622
1216.05	95.0945
1216.33	95.0664
1216.61	92.9012
1216.89	96.0475
1217.16	96.0056
1217.44	94.9098
1217.72	107.626
1218	101.22
1218.27	91.6367
1218.55	90.551
1218.83	91.5897
1219.1	100.065
1219.38	103.237
1219.66	93.6749
1219.94	94.7203
1220.21	100.003
1220.49	95.7538
1220.77	98.9325
1221.04	101.044
1221.32	90.4258
1221.6	88.2853
1221.88	90.386
1222.15	95.6551
1222.43	100.911
1222.71	92.3898
1222.98	106.099
1223.26	94.408
1223.54	93.3039
1223.81	91.1474
1224.09	95.3381
1224.37	92.1322
1224.65	91.0498
1224.92	98.4189
1225.2	99.4575
1225.48	97.3398
1225.76	89.9583
1226.03	96.299
1226.31	91.0282
1226.59	91.0193
1226.86	86.7858
1227.14	84.6544
1227.42	101.523
1227.69	104.632
1227.97	87.6651
1228.25	103.407
1228.52	105.449
1228.8	103.242
1229.08	111.566
1229.35	92.6398
1229.63	99.1861
1229.91	99.394
1230.18	91.9142
1230.46	94.9842
1230.74	92.8402
1231.01	92.8467
1231.29	91.7355
1231.57	98.9055
1231.84	87.3607
1232.12	83.152
1232.4	107.314
1232.67	96.7904
1232.95	99.9363
1233.23	91.5223
1233.5	108.317
1233.78	105.159
1234.06	96.7575
1234.33	105.167
1234.61	105.174
1234.89	99.9318
1235.16	98.8937
1235.44	98.898
1235.71	101.006
1235.99	93.6553
1236.27	97.8651
1236.54	97.8598
1236.82	102.049
1237.1	102.029
1237.37	98.8504
1237.65	100.914
1237.93	112.426
1238.2	103.984
1238.48	108.14
1238.76	90.264
1239.03	115.405
1239.31	102.798
1239.58	101.732
1239.86	101.718
1240.14	92.2735
1240.41	100.652
1240.69	106.937
1240.97	104.84
1241.24	114.276
1241.52	101.697
1241.79	95.3951
1242.07	101.662
1242.35	111.078
1242.62	105.837
1242.9	103.744
1243.18	106.899
1243.45	106.91
1243.73	107.953
1244	105.854
1244.28	107.954
1244.56	108.997
1244.83	110.034
1245.11	105.827
1245.39	115.232
1245.66	115.199
1245.94	115.155
1246.21	116.16
1246.49	118.234
1246.76	116.127
1247.04	121.358
1247.32	114.025
1247.59	122.384
1247.87	118.192
1248.14	121.315
1248.42	125.45
1248.7	126.468
1248.97	116
1249.25	116.003
1249.52	128.56
1249.8	115.997
1250.08	118.081
1250.35	113.895
1250.63	110.73
1250.9	129.515
1251.18	116.94
1251.45	116.914
1251.73	121.068
1252.01	116.865
1252.28	115.796
1252.56	123.08
1252.83	120.965
1253.11	130.33
1253.39	122.996
1253.66	124.024
1253.94	118.803
1254.21	124.037
1254.49	128.233
1254.76	131.389
1255.04	124.088
1255.31	125.128
1255.59	129.311
1255.87	138.706
1256.14	137.651
1256.42	132.433
1256.69	143.927
1256.97	151.256
1257.24	160.661
1257.52	173.183
1257.79	177.332
1258.07	181.489
1258.35	177.295
1258.62	163.703
1258.9	155.329
1259.17	166.77
1259.45	167.806
1259.72	175.129
1260	186.634
1260.27	177.308
1260.55	206.495
1260.82	208.529
1261.1	227.233
1261.37	258.471
1261.65	265.727
1261.92	293.928
1262.2	328.643
1262.48	359.391
1262.75	383.676
1263.02	378.866
1263.3	386.752
1263.58	378.229
1263.85	362.94
1264.13	313.075
1264.4	286.183
1264.68	257.033
1264.95	251.641
1265.23	223.356
1265.5	211.856
1265.78	186.752
1266.05	189.849
1266.33	162.678
1266.6	177.316
1266.88	166.885
1267.15	165.867
1267.43	163.811
1267.7	163.852
1267.98	152.389
1268.25	150.343
1268.53	158.782
1268.8	161.978
1269.08	169.339
1269.35	166.22
1269.63	141.09
1269.9	158.889
1270.18	158.851
1270.45	157.751
1270.73	149.338
1271	155.578
1271.28	150.315
1271.55	151.348
1271.83	171.204
1272.1	147.146
1272.38	163.923
1272.65	150.356
1272.93	162.979
1273.2	153.589
1273.47	168.296
1273.75	163.097
1274.03	162.089
1274.3	155.836
1274.57	174.738
1274.85	161.107
1275.12	171.585
1275.4	175.778
1275.67	174.745
1275.95	181.066
1276.22	171.65
1276.5	192.68
1276.77	178.014
1277.05	196.946
1277.32	193.82
1277.6	207.52
1277.87	213.871
1278.14	223.378
1278.42	227.624
1278.69	256.05
1278.97	280.308
1279.24	290.868
1279.52	310.901
1279.79	362.426
1280.07	426.557
1280.34	507.486
1280.61	619.996
1280.89	773.602
1281.16	1027.18
1281.44	1375.69
1281.71	1853.95
1281.99	2456.3
1282.26	3287.8
1282.53	4079.74
1282.81	4723.48
1283.08	5161.64
1283.36	5071.79
1283.63	4559.62
1283.91	3604.84
1284.18	2671.65
1284.45	1899.26
1284.73	1323.74
1285	945.684
1285.28	709.632
1285.55	536.56
1285.83	455.303
1286.1	383.714
1286.37	356.414
1286.65	292.17
1286.92	282.636
1287.2	258.413
1287.47	255.235
1287.75	222.562
1288.02	222.519
1288.29	219.335
1288.57	196.177
1288.84	203.546
1289.12	196.19
1289.39	201.479
1289.66	186.773
1289.94	189.963
1290.21	192.106
1290.49	165.801
1290.76	162.636
1291.03	173.148
1291.31	155.23
1291.58	173.129
1291.86	157.325
1292.13	164.688
1292.4	163.633
1292.68	160.481
1292.95	161.521
1293.22	147.814
1293.5	155.191
1293.77	147.864
1294.05	152.138
1294.32	146.927
1294.59	152.214
1294.87	146.938
1295.14	150.088
1295.42	151.166
1295.69	142.786
1295.96	151.307
1296.24	145.074
1296.51	143.017
1296.79	137.744
1297.06	141.973
1297.33	133.499
1297.61	141.926
1297.88	133.441
1298.15	134.464
1298.43	121.753
1298.7	149.223
1298.97	130.199
1299.25	134.397
1299.52	133.32
1299.79	140.684
1300.07	137.512
1300.34	134.366
1300.62	129.097
1300.89	134.377
1301.16	130.144
1301.44	129.08
1301.71	135.418
1301.98	125.933
1302.25	136.512
1302.53	115.394
1302.8	123.845
1303.08	129.122
1303.35	128.054
1303.62	128.036
1303.9	115.338
1304.17	117.442
1304.44	128.001
1304.72	119.55
1304.99	114.266
1305.26	118.472
1305.54	118.447
1305.81	123.694
1306.08	111
1306.35	120.464
1306.63	126.765
1306.9	116.204
1307.18	121.473
1307.45	119.371
1307.72	108.824
1308	109.874
1308.27	110.924
1308.54	118.31
1308.81	109.862
1309.09	109.865
1309.36	117.263
1309.63	113.056
1309.91	119.401
1310.18	108.855
1310.45	117.292
1310.73	108.839
1311	109.891
1311.27	110.947
1311.55	119.393
1311.82	104.619
1312.09	113.069
1312.37	110.973
1312.64	118.377
1312.91	110.991
1313.18	113.094
1313.46	109.906
1313.73	119.4
1314	109.885
1314.28	114.096
1314.55	118.314
1314.82	110.929
1315.09	106.714
1315.37	106.724
1315.64	117.293
1315.91	118.361
1316.18	113.092
1316.46	101.466
1316.73	106.736
1317	110.953
1317.28	103.554
1317.55	99.3259
1317.82	104.618
1318.09	108.85
1318.37	104.628
1318.64	109.911
1318.91	108.854
1319.18	110.964
1319.46	103.562
1319.73	102.498
1320	97.2092
1320.28	120.454
1320.55	109.888
1320.82	103.54
1321.09	100.352
1321.37	108.774
1321.64	114.018
1321.91	101.314
1322.18	111.844
1322.46	104.424
1322.73	106.516
1323	109.662
1323.27	111.751
1323.55	104.345
1323.82	109.626
1324.09	104.355
1324.36	104.354
1324.64	107.51
1324.91	102.236
1325.18	113.829
1325.45	107.506
1325.73	115.908
1326	100.046
1326.27	89.4525
1326.54	109.38
1326.81	103.032
1327.09	123.009
1327.36	106.209
1327.63	111.542
1327.9	101.044
1328.18	110.56
1328.45	103.221
1328.72	105.367
1328.99	106.453
1329.27	115.955
1329.54	110.662
1329.81	106.451
1330.08	99.0574
1330.35	105.375
1330.63	114.851
1330.9	106.39
1331.17	103.197
1331.44	106.325
1331.71	107.333
1331.99	107.282
1332.26	104.083
1332.53	106.155
1332.8	109.276
1333.07	99.7676
1333.35	107.089
1333.62	108.101
1333.89	112.267
1334.16	101.726
1334.43	113.247
1334.71	112.163
1334.98	104.784
1335.25	112.105
1335.52	118.375
1335.79	115.202
1336.07	103.64
1336.34	107.814
1336.61	99.405
1336.88	115.115
1337.15	107.759
1337.43	111.939
1337.7	115.07
1337.97	107.717
1338.24	101.4
1338.51	95.0877
1338.78	106.591
1339.06	118.089
1339.33	101.319
1339.6	104.454
1339.87	111.784
1340.14	104.457
1340.42	105.503
1340.69	103.409
1340.96	112.834
1341.23	108.639
1341.5	109.678
1341.77	99.1954
1342.04	108.604
1342.32	100.208
1342.59	103.322
1342.86	111.662
1343.13	108.491
1343.4	102.196
1343.67	106.368
1343.95	105.315
1344.22	110.54
1344.49	102.172
1344.76	103.214
1345.03	112.613
1345.3	107.363
1345.58	111.516
1345.85	103.117
1346.12	109.356
1346.39	104.092
1346.66	109.256
1346.93	103.999
1347.2	110.223
1347.47	104.97
1347.75	107.023
1348.02	108.042
1348.29	105.939
1348.56	106.969
1348.83	108
1349.1	109.021
1349.37	103.788
1349.65	111.055
1349.92	113.114
1350.19	111.007
1350.46	104.737
1350.73	104.714
1351	110.928
1351.27	115.058
1351.54	111.915
1351.81	107.722
1352.09	108.75
1352.36	107.705
1352.63	104.594
1352.9	112.935
1353.17	111.926
1353.44	110.9
1353.71	106.825
1353.98	117.348
1354.25	117.233
1354.53	117.051
1354.8	115.887
1355.07	112.78
1355.34	113.825
1355.61	122.091
1355.88	114.795
1356.15	112.753
1356.42	116.915
1356.69	115.847
1356.96	117.909
1357.24	111.664
1357.51	118.919
1357.78	123.053
1358.05	121.992
1358.32	110.549
1358.59	120.903
1358.86	118.804
1359.13	116.701
1359.4	119.786
1359.67	129.099
1359.94	124.931
1360.22	119.711
1360.49	122.781
1360.76	114.454
1361.03	127.896
1361.3	111.308
1361.57	121.661
1361.84	120.617
1362.11	127.857
1362.38	127.838
1362.65	127.821
1362.92	131.946
1363.19	138.15
1363.46	143.333
1363.73	146.461
1364	150.619
1364.28	163.065
1364.55	143.378
1364.82	148.544
1365.09	149.561
1365.36	138.139
1365.63	139.14
1365.9	138.068
1366.17	143.207
1366.44	133.86
1366.71	142.099
1366.98	131.714
1367.25	139.934
1367.52	150.244
1367.79	162.626
1368.06	169.879
1368.33	210.202
1368.6	294.976
1368.87	375.625
1369.15	363.238
1369.41	273.314
1369.68	213.357
1369.95	174.041
1370.23	167.815
1370.5	136.783
1370.77	152.244
1371.04	139.821
1371.31	141.858
1371.58	149.044
1371.85	151.055
1372.12	148.927
1372.39	158.151
1372.66	150.873
1372.93	160.108
1373.2	159.047
1373.47	147.684
1373.74	155.906
1374.01	149.704
1374.28	153.809
1374.55	167.189
1374.82	167.174
1375.09	160.977
1375.36	171.253
1375.63	166.106
1375.9	167.154
1376.17	174.358
1376.44	171.273
1376.71	177.406
1376.98	184.567
1377.25	173.178
1377.52	170.015
1377.79	188.557
1378.06	183.456
1378.33	192.794
1378.6	195.977
1378.87	189.897
1379.14	207.454
1379.41	204.35
1379.68	203.288
1379.95	217.685
1380.22	233.094
1380.49	222.69
1380.76	233.827
1381.03	244.003
1381.3	266.533
1381.57	255.259
1381.84	281.925
1382.11	284.874
1382.38	321.711
1382.65	352.379
1382.92	367.646
1383.19	395.206
1383.46	436.125
1383.73	497.527
1384	570.236
1384.27	686.001
1384.54	801.875
1384.81	991.63
1385.08	1347.67
1385.34	1774.77
1385.61	2556.41
1385.88	3818.63
1386.15	5726.07
1386.42	8409.98
1386.69	10937.2
1386.96	11860.7
1387.23	10107.2
1387.5	7130
1387.77	4423.26
1388.04	2711.06
1388.31	1788.64
1388.58	1233.07
1388.85	909.082
1389.12	718.311
1389.39	594.528
1389.66	511.403
1389.93	429.308
1390.2	390.151
1390.46	364.199
1390.73	311.768
1391	304.576
1391.27	292.149
1391.54	261.374
1391.81	247
1392.08	229.523
1392.35	242.776
1392.62	222.237
1392.89	222.196
1393.16	210.901
1393.43	214.968
1393.7	188.331
1393.97	203.662
1394.23	188.291
1394.5	180.088
1394.77	182.12
1395.04	178.017
1395.31	170.87
1395.58	179.083
1395.85	181.149
1396.12	186.272
1396.39	166.815
1396.66	176.009
1396.93	169.844
1397.2	154.469
1397.46	166.714
1397.73	159.519
1398	164.615
1398.27	161.541
1398.54	156.434
1398.81	161.565
1399.08	157.481
1399.35	143.162
1399.62	156.486
1399.89	160.594
1400.16	161.63
1400.42	159.578
1400.69	161.645
1400.96	154.515
1401.23	155.555
1401.5	162.714
1401.77	169.899
1402.04	167.847
1402.31	163.803
1402.58	160.818
1402.84	159.889
1403.11	186.637
1403.38	168.217
1403.65	187.746
1403.92	176.452
1404.19	167.174
1404.46	204.007
1404.73	196.853
1404.99	202.988
1405.26	215.27
1405.53	232.665
1405.8	248
1406.07	271.535
1406.34	293.016
1406.61	329.882
1406.87	371.876
1407.14	406.74
1407.41	472.371
1407.68	502.139
1407.95	574.957
1408.22	641.633
1408.49	643.719
1408.76	628.374
1409.02	548.431
1409.29	466.433
1409.56	398.776
1409.83	328.028
1410.1	272.65
1410.37	238.796
1410.63	221.31
1410.9	191.511
1411.17	187.348
1411.44	170.904
1411.71	164.724
1411.98	147.283
1412.25	141.127
1412.51	129.874
1412.78	136.058
1413.05	141.269
1413.32	139.384
1413.59	116.864
1413.86	127.036
1414.12	117.635
1414.39	109.454
1414.66	119.788
1414.93	126.002
1415.2	106.484
1415.47	116.752
1415.73	102.376
1416	105.456
1416.27	98.2741
1416.54	114.711
1416.81	96.2329
1417.07	107.538
1417.34	104.467
1417.61	101.394
1417.88	104.484
1418.15	108.598
1418.42	96.2658
1418.68	105.515
1418.95	107.573
1419.22	108.599
1419.49	102.432
1419.76	97.2793
1420.02	102.395
1420.29	105.452
1420.56	96.1858
1420.83	98.2163
1421.1	98.1914
1421.36	104.328
1421.63	103.289
1421.9	104.319
1422.17	90.9971
1422.44	102.323
1422.7	102.355
1422.97	95.2126
1423.24	106.61
1423.51	107.733
1423.77	102.334
1424.04	101.087
1424.31	105.213
1424.58	103.058
1424.85	101.007
1425.11	104.108
1425.38	99.0506
1425.65	95.9835
1425.92	94.941
1426.19	89.8421
1426.45	86.7547
1426.72	86.7357
1426.99	74.4049
1427.26	95.908
1427.52	86.6528
1427.79	88.6621
1428.06	91.7013
1428.33	88.6112
1428.59	87.5783
1428.86	81.4331
1429.13	88.6026
1429.4	78.3666
1429.67	85.5419
1429.93	78.3821
1430.2	88.6418
1430.47	74.3153
1430.74	80.4788
1431	78.4501
1431.27	82.5859
1431.54	86.7167
1431.81	87.7553
1432.07	79.5415
1432.34	82.6018
1432.61	76.4228
1432.87	82.5626
1433.14	76.3805
1433.41	78.398
1433.68	80.41
1433.95	69.1066
1434.21	73.1821
1434.48	76.2431
1434.75	79.3499
1435.01	81.4133
1435.28	83.4631
1435.55	80.3863
1435.82	82.4306
1436.08	66.0287
1436.35	71.1442
1436.62	82.406
1436.89	77.2726
1437.15	86.481
1437.42	69.0573
1437.69	75.1976
1437.95	77.2341
1438.22	75.1786
1438.49	74.1552
1438.76	76.2124
1439.02	74.1677
1439.29	77.2403
1439.56	71.0942
1439.82	73.1518
1440.09	67.0162
1440.36	67.0326
1440.63	67.0381
1440.89	76.2679
1441.16	72.1642
1441.43	72.1652
1441.69	73.1818
1441.96	65.989
1442.23	76.2317
1442.49	70.0922
1442.76	81.3708
1443.03	64.9739
1443.3	72.1408
1443.56	64.9472
1443.83	76.2117
1444.1	74.1504
1444.36	76.1945
1444.63	78.2465
1444.9	72.1138
1445.16	74.1802
1445.43	68.0453
1445.7	68.0361
1445.97	72.1297
1446.23	64.9396
1446.5	69.0334
1446.77	59.7939
1447.03	64.9136
1447.3	74.1346
1447.57	68.9965
1447.83	63.8578
1448.1	69.9989
1448.37	67.9448
1448.63	66.9285
1448.9	65.9153
1449.17	68.9932
1449.43	64.8863
1449.7	71.0308
1449.97	60.7634
1450.23	67.9267
1450.5	63.8113
1450.77	65.8524
1451.03	70.9686
1451.3	59.6856
1451.57	64.801
1451.83	70.9392
1452.1	65.8056
1452.37	73.9934
1452.63	62.7172
1452.9	64.7639
1453.17	63.7393
1453.43	61.6941
1453.7	64.7714
1453.97	57.5949
1454.23	58.612
1454.5	64.7536
1454.77	60.6514
1455.03	64.747
1455.3	62.6923
1455.56	60.6354
1455.83	62.6827
1456.1	55.5168
1456.36	66.7934
1456.63	62.6902
1456.9	65.7559
1457.16	63.6915
1457.43	60.6039
1457.7	59.5713
1457.96	62.6371
1458.23	65.7042
1458.49	55.4574
1458.76	59.5531
1459.03	56.4799
1459.29	62.6265
1459.56	68.7728
1459.82	59.5497
1460.09	55.4457
1460.36	58.512
1460.62	67.7241
1460.89	64.6418
1461.16	57.4614
1461.42	66.6673
1461.69	61.535
1461.95	66.6415
1462.22	55.366
1462.49	58.4224
1462.75	56.36
1463.02	62.4822
1463.28	55.3038
1463.55	68.5804
1463.82	56.2931
1464.08	53.2204
1464.35	56.3026
1464.61	61.4425
1464.88	62.4856
1465.15	58.4169
1465.41	60.4129
1465.68	59.2729
1465.94	54.1157
1466.21	58.1886
1466.48	61.2664
1466.74	60.2362
1467.01	52.0428
1467.27	56.1125
1467.54	62.2363
1467.8	59.1681
1468.07	58.1401
1468.34	58.134
1468.6	53.0291
1468.87	57.1045
1469.13	56.0776
1469.4	60.1478
1469.67	54.0181
1469.93	58.0819
1470.2	55.0061
1470.46	66.2022
1470.73	61.0942
1470.99	49.8754
1471.26	47.8303
1471.53	55.9693
1471.79	48.8248
1472.06	60.0161
1472.32	57.9715
1472.59	60.0022
1472.85	57.9605
1473.12	52.8642
1473.39	48.7839
1473.65	57.9347
1473.92	56.9043
1474.18	58.929
1474.45	52.8152
1474.71	54.8468
1474.98	57.9017
1475.24	49.7598
1475.51	60.9531
1475.78	50.7696
1476.04	50.7612
1476.31	58.891
1476.57	56.8465
1476.84	55.8204
1477.1	51.7385
1477.37	57.8284
1477.63	52.7349
1477.9	57.8141
1478.16	56.7921
1478.43	61.8658
1478.69	55.7499
1478.96	51.6718
1479.22	55.7255
1479.49	54.6958
1479.76	48.5855
1480.02	58.7284
1480.29	52.6185
1480.55	56.6558
1480.82	50.5455
1481.08	60.6785
1481.35	53.5668
1481.61	54.568
1481.88	55.5843
1482.14	56.6049
1482.41	51.5378
1482.67	52.5607
1482.94	57.6422
1483.2	52.5622
1483.47	53.5809
1483.73	54.5966
1484	51.5468
1484.26	54.5877
1484.53	56.5909
1484.79	45.3948
1485.06	56.4867
1485.32	55.3905
1485.59	49.2891
1485.85	61.3745
1486.12	54.4287
1486.38	52.4146
1486.65	48.377
1486.91	51.357
1487.18	58.474
1487.44	47.3325
1487.71	50.3533
1487.97	61.479
1488.24	46.2754
1488.5	52.3392
1488.77	49.2863
1489.03	51.2943
1489.3	47.2328
1489.56	51.2709
1489.83	50.2509
1490.09	59.3487
1490.36	49.228
1490.62	59.3402
1490.89	51.2368
1491.15	56.279
1491.42	47.1635
1491.68	47.1551
1491.95	48.1603
1492.21	50.1785
1492.48	54.2215
1492.74	54.216
1493	48.1436
1493.27	51.1711
1493.53	51.1674
1493.8	50.1491
1494.06	54.1868
1494.33	56.2057
1494.59	51.1515
1494.86	56.2075
1495.12	46.0921
1495.39	50.1237
1495.65	56.1675
1495.92	54.1222
1496.18	48.0428
1496.45	59.1363
1496.71	53.0669
1496.97	59.1129
1497.24	55.0636
1497.5	57.0781
1497.77	51.0184
1498.03	53.0301
1498.3	51.0068
1498.56	53.0221
1498.82	51.0013
1499.09	43.9347
1499.35	53.017
1499.62	49.9889
1499.88	49.9901
1500.15	59.0771
1500.41	50.999
1500.68	47.9663
1500.94	53.0087
1501.2	56.0319
1501.47	50.9749
1501.73	53.9884
1502	49.9446
1502.26	49.9394
1502.52	49.9338
1502.79	60.0151
1503.05	42.8486
1503.32	57.9647
1503.58	52.9116
1503.85	57.9393
1504.11	52.894
1504.37	57.9378
1504.64	50.8779
1504.9	53.9001
1505.17	44.8182
1505.43	50.8594
1505.7	46.8149
1505.96	44.7814
1506.22	56.8509
1506.49	54.8282
1506.75	49.7857
1507.02	57.8442
1507.28	53.819
1507.54	54.8254
1507.81	50.7936
1508.07	46.7587
1508.34	50.7822
1508.6	55.8136
1508.86	54.8035
1509.13	53.7945
1509.39	51.7764
1509.66	48.7491
1509.92	51.7682
1510.18	54.794
1510.45	49.7552
1510.71	52.7643
1510.98	52.7497
1511.24	50.7187
1511.5	52.7138
1511.77	52.6875
1512.03	51.6484
1512.29	56.6433
1512.56	56.6101
1512.82	52.5628
1513.08	51.5403
1513.35	43.4913
1513.61	52.5137
1513.88	50.4979
1514.14	56.5313
1514.4	45.5021
1514.67	48.517
1514.93	48.5075
1515.2	51.5046
1515.46	57.5099
1515.72	52.4723
1515.99	48.4381
1516.25	53.4344
1516.51	52.4159
1516.78	55.4152
1517.04	51.396
1517.3	57.4047
1517.57	51.3837
1517.83	53.3864
1518.09	48.3734
1518.36	56.4024
1518.62	50.3844
1518.88	56.4028
1519.15	52.3905
1519.41	52.3918
1519.67	51.3894
1519.94	54.3985
1520.2	51.3838
1520.47	55.3879
1520.73	48.3583
1520.99	52.3705
1521.26	50.3659
1521.52	53.3774
1521.78	51.369
1522.05	48.353
1522.31	46.3382
1522.57	50.3418
1522.84	52.3378
1523.1	52.3284
1523.36	49.3071
1523.62	50.2901
1523.89	51.2671
1524.15	48.2434
1524.41	51.2337
1524.68	51.2205
1524.94	49.2056
1525.2	52.2124
1525.47	50.2085
1525.73	52.21
1525.99	52.2146
1526.26	47.2123
1526.52	52.2328
1526.78	52.2408
1527.05	54.2465
1527.31	46.2226
1527.57	53.2275
1527.84	51.2159
1528.1	52.2098
1528.36	52.2016
1528.63	54.1951
1528.89	48.1746
1529.15	52.173
1529.41	45.1551
1529.68	53.1637
1529.94	47.1469
1530.2	51.1408
1530.47	51.1348
1530.73	54.1407
1530.99	47.1372
