#Acq. time (s)=	30
#Accumulations=	2
#Range (cm-¹)=	1200...2365
#Windows=	3
#Auto scanning=	Off
#Autofocus=	Off
#Macrospot=	Off
#AutoExposure=	Off
#Spike filter=	Multiple accum.
#Delay time (s)=	2
#Binning=	1
#Readout mode=	Signal
#DeNoise=	Off
#ICS correction=	On
#Dark correction=	Off
#Inst. Process=	Off
#Detector Gain=	Best Dynamic
#Detector ADC=	50 kHz HS
#Detector temperature (°C)=	-60.09
#Instrument=	LabRAM HR Evol
#Detector=	SIN-EM FIVIS
#Objective=	x100_VIS_LWD
#Grating=	1800 (450-850nm)
#ND Filter=	100%
#Laser=	532nm_Edge
#Hole=	100.021
#Temperature=	0
#Range=	Visible
#StageXY=	75x50mm Scan+
#StageZ=	Z motor
#X (µm)=	0
#Y (µm)=	0
#Z (µm)=	-10.9
#Full time(mm:ss)=	3:18
#Project=	21_11_26
#Sample=	BU19(2)w
#Site=	
#Title=	BU19(2)w-A-FF1-FI03-L_1800 (450-850nm)_532nm_Edge_100%_x100_VIS_LWD_H100um_30sX2
#Remark=	
#Date=	26.11.2021 12:23
#Acquired=	26.11.2021 12:23:13
1202.72	1566.35
1203	1592.32
1203.28	1599.33
1203.56	1593.01
1203.84	1559.54
1204.11	1592.14
1204.39	1589.38
1204.67	1570.13
1204.95	1612.26
1205.23	1591.54
1205.5	1590.95
1205.78	1579.57
1206.06	1568.11
1206.34	1616.74
1206.61	1604.2
1206.89	1617.4
1207.17	1577
1207.45	1571.05
1207.73	1603.86
1208	1601.35
1208.28	1593.62
1208.56	1584.75
1208.84	1580.01
1209.11	1558.2
1209.39	1605.93
1209.67	1625
1209.95	1556.53
1210.23	1586.34
1210.5	1624.51
1210.78	1593.93
1211.06	1586.9
1211.34	1578.94
1211.61	1567.68
1211.89	1578.97
1212.17	1577.28
1212.45	1569.23
1212.72	1616.78
1213	1583.3
1213.28	1570.06
1213.56	1579.35
1213.83	1583.42
1214.11	1599.07
1214.39	1619.39
1214.67	1586.46
1214.94	1551.36
1215.22	1599.28
1215.5	1593.91
1215.78	1583.2
1216.05	1594.79
1216.33	1612.49
1216.61	1588.53
1216.89	1549.58
1217.16	1623.38
1217.44	1558.08
1217.72	1605.45
1218	1615.63
1218.27	1573.86
1218.55	1623.41
1218.83	1598.68
1219.1	1578.35
1219.38	1571.88
1219.66	1605.7
1219.94	1627.8
1220.21	1598.89
1220.49	1632.79
1220.77	1551.14
1221.04	1547.89
1221.32	1579.57
1221.6	1630.19
1221.88	1604.47
1222.15	1604.02
1222.43	1612.95
1222.71	1602.7
1222.98	1569.1
1223.26	1591.65
1223.54	1626.89
1223.81	1598.75
1224.09	1589.76
1224.37	1621.95
1224.65	1617.35
1224.92	1593.83
1225.2	1582.02
1225.48	1597.82
1225.76	1582.2
1226.03	1616.16
1226.31	1601.61
1226.59	1631.1
1226.86	1623.6
1227.14	1609.59
1227.42	1569.22
1227.69	1623.28
1227.97	1628.06
1228.25	1578.65
1228.52	1613.55
1228.8	1604.68
1229.08	1591.91
1229.35	1596
1229.63	1613.65
1229.91	1594.93
1230.18	1583.95
1230.46	1619.35
1230.74	1621.95
1231.01	1600.02
1231.29	1607.52
1231.57	1616.99
1231.84	1620.45
1232.12	1621.48
1232.4	1643.51
1232.67	1634.92
1232.95	1593.92
1233.23	1594.9
1233.5	1614.72
1233.78	1574.78
1234.06	1641.06
1234.33	1608.65
1234.61	1633
1234.89	1640.61
1235.16	1612.51
1235.44	1612.66
1235.71	1604.41
1235.99	1578.34
1236.27	1621.6
1236.54	1621.58
1236.82	1624.55
1237.1	1584.37
1237.37	1615.56
1237.65	1621.34
1237.93	1588.22
1238.2	1619.16
1238.48	1588.16
1238.76	1615.93
1239.03	1593.48
1239.31	1628.87
1239.58	1601.4
1239.86	1644.23
1240.14	1629.46
1240.41	1590.64
1240.69	1604.27
1240.97	1610.62
1241.24	1627.5
1241.52	1643.29
1241.79	1609.62
1242.07	1578.95
1242.35	1650.04
1242.62	1614.46
1242.9	1637.63
1243.18	1586.52
1243.45	1634.96
1243.73	1634.96
1244	1634.99
1244.28	1611
1244.56	1622.53
1244.83	1641.31
1245.11	1625.44
1245.39	1629.29
1245.66	1622.61
1245.94	1616.83
1246.21	1634.11
1246.49	1675.76
1246.76	1635.87
1247.04	1613.91
1247.32	1643.21
1247.59	1664.01
1247.87	1650.39
1248.14	1638.72
1248.42	1650.68
1248.7	1654.56
1248.97	1610.57
1249.25	1655.66
1249.52	1679.85
1249.8	1637.92
1250.08	1649.38
1250.35	1654.65
1250.63	1665.82
1250.9	1604.77
1251.18	1643.1
1251.45	1655.33
1251.73	1617.45
1252.01	1637.03
1252.28	1640.93
1252.56	1650.04
1252.83	1645.57
1253.11	1618.1
1253.39	1661.64
1253.66	1639.58
1253.94	1644.82
1254.21	1669.1
1254.49	1650.64
1254.76	1641.62
1255.04	1620.89
1255.31	1682.51
1255.59	1636.71
1255.87	1681.63
1256.14	1628.31
1256.42	1655.55
1256.69	1691.2
1256.97	1620.44
1257.24	1661.27
1257.52	1676.86
1257.79	1676.64
1258.07	1701.57
1258.35	1679.53
1258.62	1697.15
1258.9	1689.67
1259.17	1712.25
1259.45	1695.53
1259.72	1684.26
1260	1683.47
1260.27	1718.65
1260.55	1711.96
1260.82	1748.1
1261.1	1743.31
1261.37	1726.21
1261.65	1718.64
1261.92	1766.89
1262.2	1789.35
1262.48	1806.34
1262.75	1799.12
1263.02	1819.18
1263.3	1832.66
1263.58	1844.35
1263.85	1799.2
1264.13	1825.66
1264.4	1776.16
1264.68	1796.94
1264.95	1717.42
1265.23	1724.33
1265.5	1741.07
1265.78	1728.39
1266.05	1689.44
1266.33	1732.28
1266.6	1682.27
1266.88	1713.86
1267.15	1698.52
1267.43	1713.56
1267.7	1705.67
1267.98	1721.87
1268.25	1675.36
1268.53	1713.81
1268.8	1685.12
1269.08	1682.32
1269.35	1724.52
1269.63	1714.27
1269.9	1721.52
1270.18	1683.45
1270.45	1691.33
1270.73	1669
1271	1685.36
1271.28	1671.49
1271.55	1727.9
1271.83	1688.97
1272.1	1717.37
1272.38	1707.31
1272.65	1718.28
1272.93	1681.25
1273.2	1653.42
1273.47	1709.4
1273.75	1709.88
1274.03	1713.49
1274.3	1692.98
1274.57	1696.42
1274.85	1725.89
1275.12	1676.54
1275.4	1703.83
1275.67	1720.82
1275.95	1695.94
1276.22	1765.51
1276.5	1744.96
1276.77	1742.14
1277.05	1755.09
1277.32	1754.31
1277.6	1758.96
1277.87	1756.25
1278.14	1696.78
1278.42	1729.72
1278.69	1783.68
1278.97	1789.46
1279.24	1777.15
1279.52	1817.43
1279.79	1840.49
1280.07	1854.03
1280.34	1905.36
1280.61	1924.24
1280.89	2035.9
1281.16	2165.49
1281.44	2335.44
1281.71	2502.48
1281.99	2887.05
1282.26	3332.25
1282.53	3881.04
1282.81	4420.55
1283.08	4799.84
1283.36	4898.51
1283.63	4700.83
1283.91	4334.49
1284.18	3823.72
1284.45	3340.03
1284.73	2840.19
1285	2507.74
1285.28	2299.08
1285.55	2106.3
1285.83	2020.32
1286.1	1937.2
1286.37	1888.14
1286.65	1866.03
1286.92	1800.42
1287.2	1779.35
1287.47	1774
1287.75	1780.07
1288.02	1792.41
1288.29	1743.83
1288.57	1796.44
1288.84	1781.78
1289.12	1752.46
1289.39	1767.47
1289.66	1726.74
1289.94	1722.87
1290.21	1783.28
1290.49	1738.31
1290.76	1762.55
1291.03	1762.37
1291.31	1701.21
1291.58	1742.27
1291.86	1709.62
1292.13	1752.76
1292.4	1699.08
1292.68	1737.13
1292.95	1688.6
1293.22	1745.35
1293.5	1699.12
1293.77	1690.21
1294.05	1751
1294.32	1709.58
1294.59	1716.12
1294.87	1705.6
1295.14	1699.18
1295.42	1743.79
1295.69	1726.61
1295.96	1752.9
1296.24	1702.4
1296.51	1708.41
1296.79	1682.18
1297.06	1692.82
1297.33	1744.44
1297.61	1695.55
1297.88	1669.87
1298.15	1727.61
1298.43	1729.29
1298.7	1708.39
1298.97	1754.74
1299.25	1743.91
1299.52	1705.68
1299.79	1688.54
1300.07	1701.21
1300.34	1699.42
1300.62	1721.78
1300.89	1722.9
1301.16	1709.12
1301.44	1731.25
1301.71	1740.85
1301.98	1708.43
1302.25	1736.17
1302.53	1713.1
1302.8	1710
1303.08	1706.83
1303.35	1700.4
1303.62	1707.63
1303.9	1690.45
1304.17	1723.14
1304.44	1755.93
1304.72	1732.73
1304.99	1715.83
1305.26	1700.86
1305.54	1691.08
1305.81	1701.27
1306.08	1735.73
1306.35	1684.7
1306.63	1714.97
1306.9	1713.79
1307.18	1710.64
1307.45	1717.13
1307.72	1757.28
1308	1709.82
1308.27	1698.22
1308.54	1704.66
1308.81	1716.18
1309.09	1690.98
1309.36	1708.14
1309.63	1708.4
1309.91	1716.05
1310.18	1708.85
1310.45	1672.94
1310.73	1729.84
1311	1733.02
1311.27	1708.84
1311.55	1724.79
1311.82	1718.55
1312.09	1725.04
1312.37	1700.02
1312.64	1697.12
1312.91	1721.54
1313.18	1714.1
1313.46	1673.73
1313.73	1733.87
1314	1698.9
1314.28	1692.46
1314.55	1708.31
1314.82	1724.26
1315.09	1738.18
1315.37	1718.35
1315.64	1691.12
1315.91	1719.87
1316.18	1726.45
1316.46	1722.18
1316.73	1708.36
1317	1716.75
1317.28	1738.9
1317.55	1694.56
1317.82	1737.07
1318.09	1714.02
1318.37	1720.49
1318.64	1713.18
1318.91	1726.98
1319.18	1707.99
1319.46	1725.92
1319.73	1725.87
1320	1716.32
1320.28	1695.32
1320.55	1702.76
1320.82	1678.39
1321.09	1749.99
1321.37	1741.17
1321.64	1724.87
1321.91	1714.85
1322.18	1709.28
1322.46	1724.65
1322.73	1715.99
1323	1710.5
1323.27	1689.18
1323.55	1722.61
1323.82	1710.18
1324.09	1727.14
1324.36	1757.77
1324.64	1720.83
1324.91	1700.84
1325.18	1697.65
1325.45	1724.14
1325.73	1724.77
1326	1709.27
1326.27	1748.33
1326.54	1714.49
1326.81	1714.01
1327.09	1714.96
1327.36	1716.59
1327.63	1707.2
1327.9	1736.27
1328.18	1725.3
1328.45	1733.36
1328.72	1718.23
1328.99	1726.17
1329.27	1752.73
1329.54	1724.05
1329.81	1739.02
1330.08	1706.26
1330.35	1719.86
1330.63	1741.8
1330.9	1715.14
1331.17	1735.84
1331.44	1744.83
1331.71	1700.98
1331.99	1705.53
1332.26	1721.81
1332.53	1748.72
1332.8	1706.12
1333.07	1753.94
1333.35	1715.49
1333.62	1732.82
1333.89	1747.03
1334.16	1748.65
1334.43	1745.04
1334.71	1715.2
1334.98	1759.94
1335.25	1762.75
1335.52	1735.14
1335.79	1746.38
1336.07	1730.36
1336.34	1765.75
1336.61	1771.8
1336.88	1704.47
1337.15	1744.13
1337.43	1762.86
1337.7	1731.28
1337.97	1748.93
1338.24	1720.23
1338.51	1742.9
1338.78	1708.1
1339.06	1719.36
1339.33	1733.85
1339.6	1735.91
1339.87	1738.09
1340.14	1747.63
1340.42	1733.02
1340.69	1733.1
1340.96	1739.46
1341.23	1767.72
1341.5	1727.87
1341.77	1756.03
1342.04	1760.05
1342.32	1756.64
1342.59	1756.29
1342.86	1760.03
1343.13	1750.18
1343.4	1752.04
1343.67	1757.16
1343.95	1762.35
1344.22	1739.34
1344.49	1741.48
1344.76	1720.59
1345.03	1750.77
1345.3	1746.33
1345.58	1751.18
1345.85	1724.53
1346.12	1782.62
1346.39	1745.48
1346.66	1742.55
1346.93	1752.45
1347.2	1771.77
1347.47	1754.56
1347.75	1715.51
1348.02	1735.03
1348.29	1724.4
1348.56	1744.07
1348.83	1726.25
1349.1	1752.05
1349.37	1746.53
1349.65	1741
1349.92	1754.24
1350.19	1774.77
1350.46	1753.66
1350.73	1726.29
1351	1748.78
1351.27	1748.36
1351.54	1726.25
1351.81	1746.63
1352.09	1788.11
1352.36	1713.23
1352.63	1737.36
1352.9	1727.35
1353.17	1772.63
1353.44	1741.71
1353.71	1748.4
1353.98	1726.05
1354.25	1747.37
1354.53	1745.84
1354.8	1738.89
1355.07	1748.45
1355.34	1759
1355.61	1732.44
1355.88	1769.54
1356.15	1748.33
1356.42	1753.68
1356.69	1782.41
1356.96	1776.02
1357.24	1726.03
1357.51	1763.27
1357.78	1762.02
1358.05	1785.65
1358.32	1758.37
1358.59	1771.56
1358.86	1770.25
1359.13	1742.93
1359.4	1741.58
1359.67	1776.61
1359.94	1797.14
1360.22	1764.56
1360.49	1737.12
1360.76	1762.56
1361.03	1762.25
1361.3	1780.77
1361.57	1791.12
1361.84	1793.14
1362.11	1760.95
1362.38	1773.18
1362.65	1793.73
1362.92	1795.64
1363.19	1810.09
1363.46	1794.69
1363.73	1799.16
1364	1812.86
1364.28	1814.14
1364.55	1798.6
1364.82	1789.17
1365.09	1828.36
1365.36	1769.03
1365.63	1774.87
1365.9	1798.27
1366.17	1777.19
1366.44	1816.13
1366.71	1778.49
1366.98	1789.37
1367.25	1809.45
1367.52	1788.52
1367.79	1781.13
1368.06	1802.05
1368.33	1834.25
1368.6	1783.72
1368.87	1862.42
1369.15	1912.17
1369.41	1953.7
1369.68	1976.6
1369.95	1937.1
1370.23	1842.82
1370.5	1819.89
1370.77	1798.77
1371.04	1841.96
1371.31	1855.07
1371.58	1821.53
1371.85	1811.65
1372.12	1808.9
1372.39	1820.61
1372.66	1815.87
1372.93	1835
1373.2	1831.62
1373.47	1805.63
1373.74	1797.18
1374.01	1833.08
1374.28	1846.34
1374.55	1813.26
1374.82	1843.03
1375.09	1836.73
1375.36	1819
1375.63	1859.27
1375.9	1849.21
1376.17	1853.31
1376.44	1833.86
1376.71	1834.44
1376.98	1827.84
1377.25	1883.87
1377.52	1838.87
1377.79	1836.03
1378.06	1799.45
1378.33	1847.55
1378.6	1873.2
1378.87	1853.62
1379.14	1910.65
1379.41	1886.89
1379.68	1890.78
1379.95	1877.13
1380.22	1894.29
1380.49	1863.63
1380.76	1879.65
1381.03	1913.79
1381.3	1928.53
1381.57	1910.35
1381.84	1927.36
1382.11	1933.68
1382.38	1918.37
1382.65	1980.23
1382.92	1942.58
1383.19	1938.78
1383.46	2035.71
1383.73	2037.19
1384	2035.83
1384.27	2109.38
1384.54	2173.03
1384.81	2224.5
1385.08	2344.91
1385.34	2478.92
1385.61	2696.43
1385.88	3083.12
1386.15	3701.89
1386.42	4688.18
1386.69	6095.19
1386.96	7807.03
1387.23	9100.12
1387.5	9076.51
1387.77	7623.98
1388.04	5720.31
1388.31	4358.74
1388.58	3380.52
1388.85	2867.19
1389.12	2562.85
1389.39	2403.27
1389.66	2229.96
1389.93	2149.11
1390.2	2133.02
1390.46	2062.66
1390.73	2000.41
1391	1983.95
1391.27	1986.25
1391.54	1927.68
1391.81	1958.27
1392.08	1936.33
1392.35	1938.93
1392.62	1897.55
1392.89	1901.35
1393.16	1895.99
1393.43	1832.33
1393.7	1882.32
1393.97	1856.58
1394.23	1818.59
1394.5	1860.44
1394.77	1886.94
1395.04	1819.36
1395.31	1889.16
1395.58	1883.35
1395.85	1885.64
1396.12	1849.92
1396.39	1859.09
1396.66	1882.5
1396.93	1873.09
1397.2	1865.71
1397.46	1844.92
1397.73	1875.29
1398	1870.02
1398.27	1873.08
1398.54	1849.7
1398.81	1844.82
1399.08	1859.3
1399.35	1865.55
1399.62	1838.26
1399.89	1848.71
1400.16	1847.88
1400.42	1840.72
1400.69	1879.89
1400.96	1883.45
1401.23	1878.57
1401.5	1848.83
1401.77	1859.31
1402.04	1830.64
1402.31	1882.5
1402.58	1844.62
1402.84	1854.99
1403.11	1873.27
1403.38	1834.87
1403.65	1888.56
1403.92	1833.16
1404.19	1830.75
1404.46	1867.71
1404.73	1900.84
1404.99	1859.66
1405.26	1847.15
1405.53	1913.52
1405.8	1899.86
1406.07	1924.15
1406.34	1908.49
1406.61	1945.22
1406.87	1933.81
1407.14	1965.7
1407.41	1972.01
1407.68	2013.2
1407.95	2036.93
1408.22	2062.7
1408.49	2117.18
1408.76	2129.63
1409.02	2107.25
1409.29	2112.59
1409.56	2061.51
1409.83	2048.35
1410.1	2010.54
1410.37	1961.32
1410.63	1957.89
1410.9	1895.86
1411.17	1884.02
1411.44	1869.27
1411.71	1887.42
1411.98	1859.53
1412.25	1866.66
1412.51	1881.29
1412.78	1869.55
1413.05	1870.73
1413.32	1846.26
1413.59	1880.28
1413.86	1817.28
1414.12	1839.54
1414.39	1851.25
1414.66	1814.53
1414.93	1842.08
1415.2	1844.04
1415.47	1824.62
1415.73	1824.66
1416	1832.95
1416.27	1816.69
1416.54	1818.93
1416.81	1825.3
1417.07	1875.84
1417.34	1831.91
1417.61	1836.26
1417.88	1801.55
1418.15	1830.45
1418.42	1836.67
1418.68	1837.8
1418.95	1827.63
1419.22	1849.26
1419.49	1833.91
1419.76	1817.3
1420.02	1866.31
1420.29	1817.68
1420.56	1823.54
1420.83	1804.71
1421.1	1847.47
1421.36	1832.79
1421.63	1861.39
1421.9	1840.99
1422.17	1827.13
1422.44	1807.22
1422.7	1848.94
1422.97	1816.03
1423.24	1853.6
1423.51	1840.82
1423.77	1841.7
1424.04	1849.2
1424.31	1843.57
1424.58	1824.42
1424.85	1839.83
1425.11	1817.83
1425.38	1856.02
1425.65	1848.07
1425.92	1840.66
1426.19	1807.46
1426.45	1859.68
1426.72	1845.02
1426.99	1823.04
1427.26	1829.75
1427.52	1849.74
1427.79	1830.58
1428.06	1857.67
1428.33	1823.61
1428.59	1825.57
1428.86	1820.5
1429.13	1797.08
1429.4	1829
1429.67	1796.46
1429.93	1817.25
1430.2	1817.66
1430.47	1829.43
1430.74	1827.79
1431	1815.04
1431.27	1814.83
1431.54	1830.86
1431.81	1836.33
1432.07	1818.91
1432.34	1849.4
1432.61	1807.95
1432.87	1822.07
1433.14	1777.46
1433.41	1841.41
1433.68	1791.48
1433.95	1808.22
1434.21	1831.36
1434.48	1816.87
1434.75	1777.78
1435.01	1820.18
1435.28	1771.1
1435.55	1781.38
1435.82	1805.96
1436.08	1799.76
1436.35	1838.61
1436.62	1834.41
1436.89	1832.22
1437.15	1837.19
1437.42	1828.87
1437.69	1849.33
1437.95	1796.92
1438.22	1825.53
1438.49	1819.5
1438.76	1821.85
1439.02	1839.46
1439.29	1840.57
1439.56	1808.93
1439.82	1835.88
1440.09	1813.77
1440.36	1780.46
1440.63	1807.37
1440.89	1765.46
1441.16	1812.68
1441.43	1832.3
1441.69	1799.37
1441.96	1768.34
1442.23	1808.2
1442.49	1829.1
1442.76	1859.94
1443.03	1828.53
1443.3	1832.43
1443.56	1840.35
1443.83	1833.97
1444.1	1822.54
1444.36	1840.95
1444.63	1858.51
1444.9	1827.28
1445.16	1847.23
1445.43	1823.21
1445.7	1804.62
1445.97	1820.89
1446.23	1842.31
1446.5	1842.18
1446.77	1842.07
1447.03	1810.16
1447.3	1859.27
1447.57	1775.03
1447.83	1819.95
1448.1	1823.89
1448.37	1846.46
1448.63	1798.61
1448.9	1830.83
1449.17	1806.35
1449.43	1849.43
1449.7	1841.09
1449.97	1822.43
1450.23	1831.38
1450.5	1848.54
1450.77	1828.93
1451.03	1844.19
1451.3	1878.92
1451.57	1840.87
1451.83	1803.82
1452.1	1839.53
1452.37	1842.49
1452.63	1795.31
1452.9	1828.15
1453.17	1813.92
1453.43	1815.17
1453.7	1823.56
1453.97	1789.78
1454.23	1851.17
1454.5	1814.21
1454.77	1816.28
1455.03	1852.17
1455.3	1863.42
1455.56	1839.75
1455.83	1855.18
1456.1	1800.18
1456.36	1845.47
1456.63	1830.12
1456.9	1826.92
1457.16	1865.58
1457.43	1838.67
1457.7	1833.43
1457.96	1844.61
1458.23	1815.88
1458.49	1803.62
1458.76	1821.1
1459.03	1846.84
1459.29	1811.09
1459.56	1819.37
1459.82	1850.17
1460.09	1798.9
1460.36	1842.86
1460.62	1854.03
1460.89	1852.87
1461.16	1855.77
1461.42	1863.75
1461.69	1811.32
1461.95	1852.04
1462.22	1839.47
1462.49	1848.37
1462.75	1806.08
1463.02	1850.73
1463.28	1854.42
1463.55	1838.67
1463.82	1812.75
1464.08	1835.2
1464.35	1840.9
1464.61	1811.07
1464.88	1832.2
1465.15	1837.16
1465.41	1830.68
1465.68	1857.06
1465.94	1801.5
1466.21	1792.16
1466.48	1840.7
1466.74	1855.87
1467.01	1869.37
1467.27	1825.28
1467.54	1841.8
1467.8	1833.54
1468.07	1825.28
1468.34	1865
1468.6	1838.47
1468.87	1850.69
1469.13	1869.99
1469.4	1835.15
1469.67	1848.21
1469.93	1794.86
1470.2	1871.94
1470.46	1831.86
1470.73	1869.34
1470.99	1816.17
1471.26	1848.66
1471.53	1826.02
1471.79	1828.74
1472.06	1825.46
1472.32	1826.37
1472.59	1859.93
1472.85	1871.1
1473.12	1817.1
1473.39	1812.91
1473.65	1815.73
1473.92	1845
1474.18	1861.08
1474.45	1850.8
1474.71	1875.24
1474.98	1854.05
1475.24	1806.35
1475.51	1847.11
1475.78	1839.95
1476.04	1856.09
1476.31	1859.93
1476.57	1834.34
1476.84	1842.34
1477.1	1825.8
1477.37	1858.07
1477.63	1808.1
1477.9	1818.23
1478.16	1872.1
1478.43	1859.71
1478.69	1857.34
1478.96	1813.38
1479.22	1841.6
1479.49	1877.89
1479.76	1805.43
1480.02	1866.01
1480.29	1828.07
1480.55	1860.95
1480.82	1880.74
1481.08	1848.94
1481.35	1855.89
1481.61	1876.91
1481.88	1851.73
1482.14	1849
1482.41	1830.07
1482.67	1862.94
1482.94	1852.08
1483.2	1839.91
1483.47	1848.27
1483.73	1864.66
1484	1858.59
1484.26	1870.73
1484.53	1865.95
1484.79	1837.56
1485.06	1869.1
1485.32	1860.57
1485.59	1821.26
1485.85	1866.4
1486.12	1840.27
1486.38	1873.22
1486.65	1874.95
1486.91	1843.66
1487.18	1845.61
1487.44	1814.49
1487.71	1857.55
1487.97	1867.28
1488.24	1847.8
1488.5	1858.66
1488.77	1846.13
1489.03	1882.15
1489.3	1842.36
1489.56	1855.33
1489.83	1833.94
1490.09	1870.26
1490.36	1863.18
1490.62	1875.32
1490.89	1809.36
1491.15	1892.97
1491.42	1854.2
1491.68	1872.24
1491.95	1859.03
1492.21	1891.4
1492.48	1883.41
1492.74	1873.26
1493	1877.22
1493.27	1895.38
1493.53	1825.64
1493.8	1872.03
1494.06	1831.54
1494.33	1855.85
1494.59	1869.13
1494.86	1883.45
1495.12	1870.26
1495.39	1902.33
1495.65	1881.59
1495.92	1850.64
1496.18	1846.09
1496.45	1853.86
1496.71	1880.88
1496.97	1872.6
1497.24	1889.52
1497.5	1846.13
1497.77	1851.17
1498.03	1884.39
1498.3	1875.29
1498.56	1894.49
1498.82	1885.47
1499.09	1883.53
1499.35	1926.02
1499.62	1871.66
1499.88	1861.74
1500.15	1904.32
1500.41	1897.34
1500.68	1888.26
1500.94	1897.3
1501.2	1853.85
1501.47	1886.98
1501.73	1891.69
1502	1868.38
1502.26	1861.28
1502.52	1878.38
1502.79	1893.36
1503.05	1890.96
1503.32	1884.56
1503.58	1879.32
1503.85	1908.25
1504.11	1863.89
1504.37	1851.99
1504.64	1923.69
1504.9	1893.47
1505.17	1869.2
1505.43	1888.18
1505.7	1896.99
1505.96	1885.4
1506.22	1892.82
1506.49	1888.68
1506.75	1874.54
1507.02	1871.61
1507.28	1882.98
1507.54	1879.04
1507.81	1878.13
1508.07	1881.16
1508.34	1856.87
1508.6	1897.09
1508.86	1866.92
1509.13	1893.2
1509.39	1909.37
1509.66	1855.96
1509.92	1883.17
1510.18	1906.57
1510.45	1861.36
1510.71	1929.55
1510.98	1898.98
1511.24	1899.57
1511.5	1896.05
1511.77	1874.18
1512.03	1902.41
1512.29	1875.31
1512.56	1852.31
1512.82	1889.74
1513.08	1867.18
1513.35	1832.64
1513.61	1890.53
1513.88	1847.24
1514.14	1881.82
1514.4	1908.66
1514.67	1885.76
1514.93	1873.51
1515.2	1861.06
1515.46	1882.68
1515.72	1867.17
1515.99	1860.62
1516.25	1873.13
1516.51	1867.74
1516.78	1858.56
1517.04	1881.49
1517.3	1898.43
1517.57	1891.38
1517.83	1883.41
1518.09	1855.49
1518.36	1872.89
1518.62	1935.19
1518.88	1886.19
1519.15	1912.4
1519.41	1903.56
1519.67	1937.83
1519.94	1864.7
1520.2	1890.77
1520.47	1886.6
1520.73	1925.61
1520.99	1887.62
1521.26	1912.9
1521.52	1915.1
1521.78	1865.01
1522.05	1867.97
1522.31	1900.93
1522.57	1884.69
1522.84	1902.54
1523.1	1884.31
1523.36	1859.96
1523.62	1880.48
1523.89	1882.77
1524.15	1906.34
1524.41	1891.95
1524.68	1916.68
1524.94	1903.38
1525.2	1895.6
1525.47	1921.75
1525.73	1874.76
1525.99	1870.04
1526.26	1875.41
1526.52	1912
1526.78	1916.41
1527.05	1874.48
1527.31	1889.49
1527.57	1902.27
1527.84	1922.21
1528.1	1902.03
1528.36	1877.85
1528.63	1920.73
1528.89	1906.52
1529.15	1888.34
1529.41	1904.29
1529.68	1896.26
1529.94	1912.18
1530.2	1885.86
1530.47	1902.82
1530.73	1897
1530.99	1913.43
1531.25	1908.82
1531.52	1878.06
