#Acq. time (s)=	30
#Accumulations=	2
#Range (cm-¹)=	1200...2400
#Windows=	4
#Auto scanning=	Off
#Autofocus=	Off
#Macrospot=	Off
#AutoExposure=	Off
#Spike filter=	Multiple accum.
#Delay time (s)=	2
#Binning=	1
#Readout mode=	Signal
#DeNoise=	Off
#ICS correction=	On
#Dark correction=	Off
#Inst. Process=	Off
#Detector Gain=	Best Dynamic
#Detector ADC=	50 kHz HS
#Detector temperature (°C)=	-60.09
#Instrument=	LabRAM HR Evol
#Detector=	SIN-EM FIVIS
#Objective=	x100_VIS
#Grating=	1800 (450-850nm)
#ND Filter=	100%
#Laser=	532nm_Edge
#Hole=	49.98
#Temperature=	0
#Range=	Visible
#StageXY=	75x50mm Scan+
#StageZ=	Z motor
#X (µm)=	0
#Y (µm)=	0
#Z (µm)=	-293.2
#Full time(mm:ss)=	4:21
#Project=	21_11_04
#Sample=	BU19w
#Site=	
#Title=	BU19w-E-FF11b-FI09-V_1800 (450-850nm)_532nm_Edge_100%_x100_VIS_H50um_30sX2
#Remark=	
#Date=	04.11.2021 17:31
#Acquired=	04.11.2021 17:31:01
1200.19	16.7014
1200.46	18.8537
1200.74	18.8443
1201.02	20.9823
1201.3	20.9691
1201.57	22.0345
1201.85	19.8854
1202.13	22.0544
1202.41	19.9394
1202.69	19.9234
1202.96	17.7628
1203.24	18.8199
1203.52	19.8932
1203.8	19.882
1204.08	23.116
1204.35	18.8137
1204.63	20.9583
1204.91	22.0233
1205.19	19.8667
1205.47	20.9301
1205.74	21.9931
1206.02	19.8382
1206.3	19.8289
1206.58	23.0339
1206.85	20.8842
1207.13	19.8087
1207.41	18.7337
1207.69	17.6605
1207.97	19.7964
1208.24	19.7903
1208.52	18.7157
1208.8	20.8501
1209.08	18.7102
1209.36	18.7093
1209.63	17.6378
1209.91	21.9075
1210.19	18.6935
1210.46	17.6188
1210.74	20.8152
1211.02	19.7408
1211.3	21.8677
1211.57	20.7927
1211.85	17.5879
1212.13	17.583
1212.41	19.7084
1212.69	17.5732
1212.96	18.6351
1213.24	20.7615
1213.52	22.8885
1213.79	16.5017
1214.07	18.6315
1214.35	16.5022
1214.63	17.5665
1214.9	18.6304
1215.18	17.5648
1215.46	20.7552
1215.74	22.8771
1216.01	20.7409
1216.29	20.7321
1216.57	16.4735
1216.85	19.6561
1217.12	17.526
1217.4	19.6452
1217.68	19.6408
1217.95	19.6363
1218.23	18.5717
1218.51	20.6924
1218.79	18.5685
1219.06	16.4449
1219.34	22.8066
1219.62	20.6827
1219.89	19.6222
1220.17	19.6215
1220.45	22.8022
1220.73	18.557
1221	19.6143
1221.28	23.8499
1221.56	16.4244
1221.84	18.5359
1222.11	21.7031
1222.39	18.5176
1222.67	20.6249
1222.94	19.5577
1223.22	18.4942
1223.5	24.8256
1223.77	20.5935
1224.05	16.366
1224.33	20.5854
1224.61	20.5836
1224.88	15.3058
1225.16	25.8661
1225.44	19.5335
1225.71	25.8706
1225.99	17.4217
1226.27	21.6427
1226.54	24.8052
1226.82	23.7427
1227.1	26.8897
1227.37	24.7598
1227.65	22.6394
1227.93	22.6231
1228.21	24.7057
1228.48	22.5921
1228.76	22.6133
1229.03	23.7212
1229.31	21.6314
1229.59	21.6108
1229.86	23.7023
1230.14	24.7522
1230.42	23.6957
1230.69	22.6139
1230.97	21.5401
1231.25	21.5421
1231.52	23.6433
1231.8	21.54
1232.08	20.4877
1232.35	22.5882
1232.63	21.5359
1232.91	23.6353
1233.18	22.585
1233.46	21.5361
1233.74	21.5381
1234.01	18.3883
1234.29	23.6461
1234.57	21.5468
1234.84	23.6509
1235.12	21.551
1235.4	21.5534
1235.67	24.7087
1235.95	23.6556
1236.23	22.6011
1236.5	26.8016
1236.78	23.6418
1237.06	23.6335
1237.33	22.575
1237.61	20.4678
1237.88	18.3618
1238.16	23.5999
1238.44	22.546
1238.71	19.397
1238.99	20.4429
1239.27	19.3929
1239.54	20.4401
1239.82	22.536
1240.1	23.5844
1240.37	21.4888
1240.65	21.4901
1240.92	18.3455
1241.2	20.4386
1241.48	23.579
1241.75	20.4337
1242.03	23.5792
1242.3	21.484
1242.58	18.3441
1242.86	22.5384
1243.13	21.4889
1243.41	21.4901
1243.68	21.4916
1243.96	22.5384
1244.24	20.4406
1244.51	19.3899
1244.79	18.3368
1245.06	22.5226
1245.34	22.5134
1245.62	28.7883
1245.89	22.5057
1246.17	23.5507
1246.44	24.5984
1246.72	21.457
1247	23.5483
1247.27	23.5481
1247.55	26.6827
1247.82	20.3963
1248.1	22.4861
1248.38	22.4858
1248.65	22.4877
1248.93	25.6265
1249.2	23.5325
1249.48	20.3947
1249.75	21.4397
1250.03	21.4341
1250.31	24.5647
1250.58	23.5144
1250.86	22.4651
1251.13	22.4613
1251.41	22.4573
1251.69	23.4975
1251.96	22.449
1252.24	22.4447
1252.51	22.44
1252.79	19.3059
1253.06	20.3482
1253.34	23.4803
1253.61	20.3531
1253.89	18.2693
1254.17	26.6254
1254.44	20.3616
1254.72	23.4949
1254.99	22.4518
1255.27	22.4513
1255.54	25.5837
1255.82	26.6295
1256.09	22.4548
1256.37	24.5463
1256.65	25.591
1256.92	27.6775
1257.2	25.5856
1257.47	29.7603
1257.75	28.7138
1258.02	28.7114
1258.3	27.6622
1258.57	27.658
1258.85	26.6157
1259.13	21.3986
1259.4	30.8044
1259.67	25.5851
1259.95	30.7995
1260.23	27.6585
1260.5	27.65
1260.78	31.8169
1261.05	28.6836
1261.33	33.9156
1261.6	36.0392
1261.88	41.3269
1262.15	38.1575
1262.43	47.5012
1262.7	44.3148
1262.98	46.4215
1263.25	47.5057
1263.53	43.3613
1263.8	39.2281
1264.08	40.2608
1264.35	37.1064
1264.63	27.696
1264.9	32.9229
1265.18	26.646
1265.45	28.7334
1265.73	24.5547
1266	30.827
1266.28	27.6964
1266.55	25.6113
1266.83	28.7546
1267.1	27.7167
1267.38	27.725
1267.66	25.6415
1267.93	27.7489
1268.2	24.6135
1268.48	29.8557
1268.75	25.6694
1269.03	26.72
1269.31	28.8105
1269.58	28.8033
1269.85	25.6535
1270.13	24.6015
1270.4	25.6424
1270.68	30.8716
1270.95	29.823
1271.23	23.5424
1271.5	23.546
1271.78	24.5988
1272.05	28.795
1272.33	23.5679
1272.6	26.7169
1272.88	24.6281
1273.15	27.7795
1273.43	23.5926
1273.7	30.9396
1273.98	27.7965
1274.25	26.7479
1274.53	26.7472
1274.8	25.6994
1275.07	28.8502
1275.35	27.8058
1275.62	28.8609
1275.9	25.7181
1276.17	29.9225
1276.45	30.9777
1276.72	27.8326
1277	27.8394
1277.27	29.9478
1277.54	31.0055
1277.82	33.1139
1278.1	34.1732
1278.37	34.1811
1278.64	33.1352
1278.92	36.2934
1279.19	37.3431
1279.47	37.3393
1279.74	42.5945
1280.02	48.9056
1280.29	51.0129
1280.56	63.6448
1280.84	72.0819
1281.11	96.3086
1281.39	124.734
1281.66	166.842
1281.94	221.609
1282.21	311.096
1282.49	382.587
1282.76	423.321
1283.03	462.964
1283.31	438.74
1283.58	366.154
1283.86	301.554
1284.13	189.123
1284.41	144.899
1284.68	101.664
1284.95	74.2373
1285.23	61.5887
1285.5	50.0159
1285.78	52.1312
1286.05	38.4332
1286.32	44.7477
1286.6	37.3767
1286.87	36.3204
1287.15	33.1564
1287.42	34.2034
1287.69	35.2537
1287.97	33.1496
1288.24	32.0982
1288.52	33.1542
1288.79	30.0019
1289.06	27.9014
1289.34	28.9599
1289.61	26.8597
1289.89	28.9703
1290.16	30.0207
1290.43	28.9647
1290.71	27.9106
1290.98	26.8572
1291.26	27.9101
1291.53	25.8023
1291.8	22.6441
1292.08	22.6457
1292.35	31.0676
1292.62	23.6949
1292.9	26.8571
1293.17	25.8159
1293.45	24.7716
1293.72	29.0009
1293.99	22.6719
1294.27	26.8909
1294.54	24.7793
1294.82	24.7879
1295.09	32.1867
1295.36	22.7026
1295.64	24.8324
1295.91	26.9525
1296.18	23.7825
1296.46	21.6686
1296.73	26.9494
1297.01	21.6613
1297.28	24.826
1297.55	22.7078
1297.83	22.7036
1298.1	24.8195
1298.37	21.6476
1298.65	24.8117
1298.92	22.6969
1299.19	25.8608
1299.47	24.8069
1299.74	25.8671
1300.02	23.7571
1300.29	24.8131
1300.56	24.8119
1300.84	22.7001
1301.11	23.7582
1301.38	23.7624
1301.65	21.653
1301.93	22.7107
1302.2	24.8237
1302.47	18.4852
1302.75	21.6523
1303.02	22.7055
1303.29	22.7027
1303.57	24.8143
1303.84	24.8148
1304.12	23.7588
1304.39	23.7575
1304.66	23.7542
1304.94	22.6941
1305.21	24.7997
1305.48	26.904
1305.75	23.7335
1306.03	26.8939
1306.3	24.7832
1306.57	21.6203
1306.85	23.7312
1307.12	22.6768
1307.39	23.7312
1307.67	23.7319
1307.94	23.7319
1308.21	21.6221
1308.49	21.6243
1308.76	22.6826
1309.03	26.9066
1309.31	20.5784
1309.58	22.69
1309.85	24.7995
1310.13	21.6329
1310.4	25.8545
1310.67	21.6345
1310.94	20.5802
1311.22	17.4149
1311.49	22.6951
1311.76	23.7548
1312.04	22.7017
1312.31	23.7587
1312.58	21.6442
1312.85	22.6974
1313.13	24.8081
1313.4	22.6946
1313.67	21.638
1313.95	21.6386
1314.22	21.6403
1314.49	19.5313
1314.76	23.7573
1315.04	20.5922
1315.31	22.7073
1315.58	21.6528
1315.86	22.7077
1316.13	20.5942
1316.4	21.6496
1316.67	21.6493
1316.95	20.5943
1317.22	21.6533
1317.49	17.4298
1317.77	22.7128
1318.04	21.6572
1318.31	25.8834
1318.58	22.7139
1318.86	23.7696
1319.13	23.7687
1319.4	21.6561
1319.67	22.7136
1319.95	21.6569
1320.22	20.5987
1320.49	22.7075
1320.76	25.8697
1321.04	22.6952
1321.31	22.6895
1321.58	21.6292
1321.85	19.5148
1322.13	24.7858
1322.4	21.6187
1322.67	23.7235
1322.94	22.6679
1323.22	21.6155
1323.49	22.6708
1323.76	22.6706
1324.03	23.725
1324.31	23.7246
1324.58	24.7802
1324.85	24.7786
1325.12	22.6621
1325.4	18.4371
1325.67	18.4245
1325.94	24.7286
1326.21	23.6709
1326.48	21.5682
1326.76	21.58
1327.03	21.5909
1327.3	20.5448
1327.57	21.6064
1327.85	20.5606
1328.12	21.6229
1328.39	22.684
1328.66	19.517
1328.93	22.6828
1329.21	22.6835
1329.48	24.7923
1329.75	20.5703
1330.02	25.841
1330.3	22.6722
1330.57	20.5579
1330.84	18.4435
1331.11	17.3821
1331.38	22.6402
1331.66	25.7916
1331.93	21.5746
1332.2	23.672
1332.47	21.5601
1332.74	22.6042
1333.01	19.4439
1333.29	22.5905
1333.56	24.6849
1333.83	20.4778
1334.1	21.5224
1334.37	20.4678
1334.65	21.5133
1334.92	23.6075
1335.19	22.5542
1335.46	19.4039
1335.73	20.4494
1336.01	22.5437
1336.28	20.4439
1336.55	22.5384
1336.82	22.5364
1337.09	22.5346
1337.37	25.6757
1337.64	22.5246
1337.91	19.3784
1338.18	22.5179
1338.45	22.5137
1338.72	19.3711
1339	23.5593
1339.27	24.608
1339.54	26.7036
1339.81	21.4678
1340.08	22.5163
1340.35	23.564
1340.63	22.5158
1340.9	18.326
1341.17	21.4658
1341.44	20.4161
1341.71	24.5996
1341.98	23.5473
1342.26	21.4484
1342.53	22.4894
1342.8	22.4873
1343.07	21.4401
1343.34	17.2563
1343.61	22.4855
1343.88	21.4401
1344.16	21.4396
1344.43	20.3913
1344.7	23.524
1344.97	19.3371
1345.24	23.5108
1345.51	21.4154
1345.79	23.4955
1346.06	22.4408
1346.33	24.5213
1346.6	21.3845
1346.87	19.2924
1347.14	21.3728
1347.41	25.5391
1347.68	22.4094
1347.95	23.4499
1348.23	19.2791
1348.5	22.4017
1348.77	24.4809
1349.04	23.4348
1349.31	21.3478
1349.58	22.3852
1349.86	24.4632
1350.13	25.499
1350.4	22.3712
1350.67	22.3663
1350.94	23.402
1351.21	24.4375
1351.48	21.3167
1351.75	21.3174
1352.02	26.5209
1352.3	22.3665
1352.57	19.2499
1352.84	25.5041
1353.11	25.5282
1353.38	25.533
1353.65	24.4619
1353.92	21.3103
1354.19	18.1819
1354.46	23.3796
1354.73	21.2995
1355.01	17.1363
1355.28	23.3692
1355.55	24.4197
1355.82	25.4526
1356.09	25.4494
1356.36	22.3311
1356.63	21.2907
1356.9	20.2499
1357.17	22.3237
1357.44	22.3201
1357.71	21.2782
1357.99	25.4255
1358.26	21.271
1358.53	21.2661
1358.8	25.4114
1359.07	21.2599
1359.34	22.2942
1359.61	27.4697
1359.88	28.4986
1360.15	25.3826
1360.42	21.2357
1360.69	20.1989
1360.96	25.3781
1361.23	24.3409
1361.5	24.3394
1361.78	27.4427
1362.05	24.3338
1362.32	21.2254
1362.59	24.3316
1362.86	25.3696
1363.13	22.2674
1363.4	26.4128
1363.67	25.3799
1363.94	27.45
1364.21	26.4123
1364.48	24.3376
1364.75	27.4391
1365.02	26.3976
1365.29	29.4963
1365.56	26.3856
1365.83	22.2416
1366.11	25.3388
1366.38	25.331
1366.65	22.2224
1366.92	26.3541
1367.19	25.3196
1367.46	24.2899
1367.73	25.325
1368	28.4278
1368.27	33.5985
1368.54	46.0072
1368.81	47.045
1369.08	40.8418
1369.35	36.701
1369.62	28.4273
1369.89	24.2886
1370.16	24.283
1370.43	27.3793
1370.7	26.3404
1370.97	27.3652
1371.24	24.2586
1371.51	25.281
1371.78	28.3663
1372.05	28.3574
1372.32	23.1962
1372.59	22.1619
1372.86	25.251
1373.13	26.2786
1373.4	29.3675
1373.67	23.183
1373.94	25.242
1374.21	26.2705
1374.48	27.2981
1374.75	25.2363
1375.02	26.2684
1375.29	30.3909
1375.56	28.331
1375.83	27.299
1376.1	30.382
1376.37	28.3144
1376.64	27.2744
1376.91	28.298
1377.18	29.3321
1377.45	30.3707
1377.72	29.3538
1377.99	31.4307
1378.26	32.4742
1378.53	35.5701
1378.8	32.4746
1379.07	32.4703
1379.34	33.4958
1379.61	30.396
1379.88	34.4957
1380.15	32.4156
1380.42	33.4283
1380.69	36.5111
1380.96	32.397
1381.23	36.4982
1381.5	34.4253
1381.77	36.4635
1382.04	35.4229
1382.31	36.4354
1382.58	44.6319
1382.85	44.6182
1383.12	47.6845
1383.39	45.625
1383.66	50.7486
1383.93	64.0793
1384.2	69.2149
1384.47	78.4585
1384.74	104.137
1385.01	139.065
1385.28	166.821
1385.55	250.011
1385.82	353.781
1386.09	540.77
1386.36	811.98
1386.62	1074.86
1386.89	1012.76
1387.16	750.858
1387.43	458.4
1387.7	263.253
1387.97	173.55
1388.24	110.219
1388.51	102.135
1388.78	76.4865
1389.05	66.2356
1389.32	46.7217
1389.59	51.8309
1389.86	47.68
1390.13	43.5869
1390.4	40.4929
1390.67	42.5329
1390.94	38.4325
1391.21	31.2534
1391.47	36.3678
1391.74	34.3102
1392.01	31.2315
1392.28	30.203
1392.55	31.2229
1392.82	33.2668
1393.09	31.2166
1393.36	32.2374
1393.63	28.1416
1393.9	30.1864
1394.17	29.1614
1394.44	28.1375
1394.71	29.1663
1394.97	26.0999
1395.24	26.1028
1395.51	30.1978
1395.78	29.1726
1396.05	27.1227
1396.32	27.1193
1396.59	25.0694
1396.86	26.0872
1397.13	27.1061
1397.4	28.1273
1397.66	26.0822
1397.93	26.0846
1398.2	30.1796
1398.47	26.0891
1398.74	30.1842
1399.01	29.1656
1399.28	27.1218
1399.55	29.1705
1399.82	26.1009
1400.09	24.0583
1400.35	24.0633
1400.62	29.185
1400.89	26.1134
1401.16	23.0431
1401.43	28.1671
1401.7	27.1543
1401.97	28.1954
1402.24	26.1593
1402.5	27.1959
1402.77	28.2295
1403.04	27.2059
1403.31	27.2042
1403.58	27.1946
1403.85	26.1611
1404.12	35.3966
1404.39	27.1861
1404.65	30.2596
1404.92	32.3054
1405.19	32.2997
1405.46	31.269
1405.73	33.315
1406	31.2618
1406.27	34.3358
1406.54	40.4879
1406.8	40.4912
1407.07	50.7462
1407.34	50.7494
1407.61	67.1573
1407.88	68.1867
1408.15	67.1659
1408.42	67.1716
1408.68	63.0753
1408.95	53.8493
1409.22	50.776
1409.49	41.5462
1409.76	33.337
1410.03	34.3552
1410.29	33.3199
1410.56	30.2359
1410.83	30.2298
1411.1	25.1022
1411.37	29.1975
1411.64	25.1006
1411.9	28.1795
1412.17	24.0893
1412.44	23.0857
1412.71	22.0834
1412.98	23.1133
1413.25	23.084
1413.51	22.0442
1413.78	25.1312
1414.05	27.2012
1414.32	22.0729
1414.59	25.1528
1414.86	22.0734
1415.12	17.9669
1415.39	24.1284
1415.66	22.0769
1415.93	26.1869
1416.2	19.0003
1416.47	20.0296
1416.73	22.0867
1417	20.0346
1417.27	24.1466
1417.54	20.0374
1417.81	24.1481
1418.07	22.0946
1418.34	25.1779
1418.61	22.0961
1418.88	21.0678
1419.15	24.1476
1419.41	20.0334
1419.68	21.0569
1419.95	22.0801
1420.22	23.1022
1420.49	22.071
1420.75	18.9882
1421.02	24.1195
1421.29	24.1223
1421.56	20.0239
1421.83	22.0834
1422.09	23.1206
1422.36	21.0777
1422.63	22.1293
1422.9	21.1142
1423.17	21.0183
1423.43	23.0791
1423.7	21.0155
1423.97	20.9951
1424.24	25.1096
1424.5	25.1049
1424.77	20.0098
1425.04	22.0419
1425.31	23.0815
1425.58	22.0561
1425.84	23.0805
1426.11	22.0494
1426.38	21.0187
1426.65	19.9878
1426.91	22.0315
1427.18	18.9484
1427.45	23.0403
1427.72	22.0136
1427.98	19.9653
1428.25	16.8945
1428.52	23.0396
1428.79	24.066
1429.06	19.9723
1429.32	23.049
1429.59	21.0053
1429.86	19.9863
1430.12	23.0653
1430.39	21.023
1430.66	20.007
1430.93	20.0126
1431.2	21.0413
1431.46	18.9875
1431.73	21.0352
1432	21.0306
1432.26	23.0796
1432.53	21.0201
1432.8	12.8125
1433.07	23.0525
1433.33	18.9476
1433.6	19.9683
1433.87	18.9444
1434.14	17.931
1434.4	17.9321
1434.67	22.0317
1434.94	18.9575
1435.21	21.0064
1435.47	18.9561
1435.74	18.955
1436.01	16.9047
1436.28	22.0253
1436.54	23.0477
1436.81	20.9976
1437.08	20.997
1437.34	18.9464
1437.61	20.9945
1437.88	19.9724
1438.15	23.0484
1438.41	21.0012
1438.68	18.9531
1438.95	21.0041
1439.21	21.008
1439.48	17.9381
1439.75	18.9676
1440.01	19.995
1440.28	24.0978
1440.55	22.0477
1440.82	17.9461
1441.08	21.0204
1441.35	23.0681
1441.62	22.0434
1441.88	18.9703
1442.15	18.9722
1442.42	19.9994
1442.69	19.9967
1442.95	22.0442
1443.22	18.966
1443.49	16.9144
1443.75	22.04
1444.02	19.9928
1444.29	16.9216
1444.55	22.0557
1444.82	21.0334
1445.09	20.0058
1445.35	23.0816
1445.62	20.0025
1445.89	22.0524
1446.15	18.974
1446.42	19.9982
1446.69	21.0221
1446.95	16.9184
1447.22	22.0427
1447.49	23.0664
1447.76	19.9922
1448.02	19.9964
1448.29	19.9997
1448.56	20.0005
1448.82	16.923
1449.09	22.049
1449.35	22.046
1449.62	18.9667
1449.89	18.9644
1450.15	18.9629
1450.42	21.0114
1450.69	18.9601
1450.96	19.9833
1451.22	22.0307
1451.49	19.9797
1451.75	16.9048
1452.02	17.9291
1452.29	21.0032
1452.55	21.005
1452.82	16.9084
1453.09	16.9096
1453.35	18.9589
1453.62	17.9329
1453.89	18.9571
1454.15	15.8831
1454.42	19.982
1454.68	19.9811
1454.95	18.9555
1455.22	17.9328
1455.48	17.9356
1455.75	18.9616
1456.02	18.9612
1456.28	19.9838
1456.55	19.9803
1456.82	16.9045
1457.08	17.9278
1457.35	19.9756
1457.61	18.9509
1457.88	16.9024
1458.15	22.0253
1458.41	16.9042
1458.68	21.0031
1458.95	18.9549
1459.21	17.9303
1459.48	18.954
1459.74	18.9528
1460.01	18.9515
1460.28	18.9499
1460.54	17.9235
1460.81	15.8732
1461.08	18.943
1461.34	19.964
1461.61	15.8662
1461.87	19.957
1462.14	20.9762
1462.41	20.9717
1462.67	18.9213
1462.94	17.8944
1463.2	15.8464
1463.47	16.8701
1463.74	16.8777
1464	16.8845
1464.27	18.9378
1464.53	16.8999
1464.8	19.9361
1465.07	16.8471
1465.33	16.8364
1465.6	17.8612
1465.86	18.886
1466.13	18.8805
1466.39	16.8317
1466.66	16.8337
1466.93	21.9348
1467.19	18.8728
1467.46	19.8917
1467.72	16.831
1467.99	18.8709
1468.26	17.8504
1468.52	19.889
1468.79	16.8274
1469.05	18.8648
1469.32	15.802
1469.58	19.8755
1469.85	16.8151
1470.12	14.7751
1470.38	18.8489
1470.65	17.8293
1470.91	20.8817
1471.18	18.841
1471.44	18.839
1471.71	16.8016
1471.97	18.8376
1472.24	19.8554
1472.51	18.8366
1472.77	16.7986
1473.04	20.8675
1473.3	17.8114
1473.57	19.8448
1473.83	19.8439
1474.1	17.809
1474.36	18.8291
1474.63	18.8298
1474.9	15.7764
1475.16	14.7579
1475.43	19.8446
1475.69	17.8068
1475.96	16.7881
1476.22	19.8386
1476.49	15.7662
1476.75	18.815
1477.02	16.7802
1477.29	17.7967
1477.55	19.8301
1477.81	15.7599
1478.08	15.757
1478.34	19.8205
1478.61	18.8012
1478.88	16.7658
1479.14	17.7785
1479.41	16.759
1479.67	19.8011
1479.94	18.7794
1480.2	17.7598
1480.47	15.7276
1480.73	19.7842
1481	18.768
1481.26	18.7703
1481.53	15.7291
1481.79	18.777
1482.06	19.7958
1482.32	20.8131
1482.59	16.7527
1482.85	17.7699
1483.12	17.7707
1483.38	17.7706
1483.65	18.783
1483.92	17.7598
1484.18	17.7469
1484.44	20.7651
1484.71	23.7795
1484.97	21.7422
1485.24	18.7151
1485.5	18.7445
1485.77	19.7645
1486.03	18.7478
1486.3	16.713
1486.56	19.7595
1486.83	19.7592
1487.09	17.7279
1487.36	18.7373
1487.62	18.7346
1487.89	19.7437
1488.15	20.7516
1488.42	17.7109
1488.68	18.72
1488.95	17.7064
1489.21	19.7284
1489.48	19.7275
1489.74	13.6575
1490.01	17.7032
1490.27	17.7006
1490.54	19.7196
1490.8	16.6832
1491.07	19.7151
1491.33	13.6485
1491.6	15.6708
1491.86	17.6931
1492.12	17.6924
1492.39	19.7135
1492.65	20.7242
1492.92	18.7018
1493.18	17.6898
1493.45	17.6895
1493.71	19.7118
1493.98	19.7134
1494.24	14.6593
1494.51	17.6909
1494.77	17.6873
1495.04	18.692
1495.3	16.6657
1495.56	18.6812
1495.83	18.6782
1496.09	17.6663
1496.36	20.692
1496.62	18.6717
1496.89	16.6531
1497.15	19.6804
1497.42	18.6703
1497.68	13.6242
1497.94	19.6796
1498.21	17.6617
1498.47	17.6623
1498.74	18.6726
1499	15.6458
1499.27	17.6662
1499.53	17.6674
1499.8	16.6582
1500.06	17.6675
1500.32	16.6575
1500.59	17.6662
1500.85	16.654
1501.12	18.6702
1501.38	16.651
1501.64	14.6323
1501.91	18.6679
1502.17	21.6921
1502.44	13.6176
1502.7	15.6329
1502.97	17.647
1503.23	21.6781
1503.5	17.6459
1503.76	18.6557
1504.02	19.6648
1504.29	20.6731
1504.55	17.6466
1504.81	17.6446
1505.08	15.6254
1505.34	18.6427
1505.61	15.6161
1505.87	18.6378
1506.13	17.6297
1506.4	17.6319
1506.66	16.6258
1506.93	18.642
1507.19	18.6426
1507.46	17.6343
1507.72	15.6178
1507.98	19.6478
1508.25	16.6256
1508.51	18.6414
1508.77	19.6492
1509.04	15.6182
1509.3	17.6339
1509.57	22.6761
1509.83	16.6278
1510.09	18.64
1510.36	17.6287
1510.62	18.6317
1510.89	17.6192
1511.15	18.6176
1511.41	18.6075
1511.68	18.5985
1511.94	18.5892
1512.21	16.574
1512.47	17.5742
1512.73	18.5744
1513	16.5635
1513.26	15.5594
1513.52	16.5698
1513.79	18.5837
1514.05	19.5881
1514.31	17.5766
1514.58	18.5759
1514.84	16.5638
1515.1	18.5664
1515.37	17.5575
1515.63	13.5404
1515.9	17.5498
1516.16	17.5484
1516.42	16.5443
1516.69	18.5487
1516.95	18.5485
1517.21	20.5544
1517.48	19.5541
1517.74	16.5482
1518	19.558
1518.27	18.5563
1518.53	20.5638
1518.79	17.556
1519.06	18.5605
1519.32	16.5544
1519.58	17.557
1519.85	19.5618
1520.11	20.5644
1520.37	19.5627
1520.64	16.5547
1520.9	17.5593
1521.16	17.5595
1521.43	16.5552
1521.69	17.5569
1521.95	16.5518
1522.22	14.5439
1522.48	18.5537
1522.75	21.5579
1523.01	18.5438
1523.27	20.5413
1523.53	18.5328
1523.8	16.526
1524.06	15.5219
1524.32	19.5263
1524.59	18.5267
1524.85	17.526
1525.11	18.5289
1525.38	16.5284
1525.64	21.5416
1525.9	17.5382
1526.17	17.541
1526.43	17.5418
1526.69	16.5384
1526.95	17.5388
1527.22	15.5333
1527.48	18.5382
1527.74	14.5286
1528.01	19.5362
