#Acq. time (s)=	30
#Accumulations=	2
#Range (cm-¹)=	1200...2400
#Windows=	4
#Auto scanning=	Off
#Autofocus=	Off
#Macrospot=	Off
#AutoExposure=	Off
#Spike filter=	Multiple accum.
#Delay time (s)=	2
#Binning=	1
#Readout mode=	Signal
#DeNoise=	Off
#ICS correction=	On
#Dark correction=	Off
#Inst. Process=	Off
#Detector Gain=	Best Dynamic
#Detector ADC=	50 kHz HS
#Detector temperature (°C)=	-60.09
#Instrument=	LabRAM HR Evol
#Detector=	SIN-EM FIVIS
#Objective=	x100_VIS
#Grating=	1800 (450-850nm)
#ND Filter=	100%
#Laser=	532nm_Edge
#Hole=	49.98
#Temperature=	0
#Range=	Visible
#StageXY=	75x50mm Scan+
#StageZ=	Z motor
#X (µm)=	0
#Y (µm)=	0
#Z (µm)=	-274.1
#Full time(mm:ss)=	4:21
#Project=	21_11_04
#Sample=	BU19w
#Site=	
#Title=	BU19w-E-FF11b-FI07-V_1800 (450-850nm)_532nm_Edge_100%_x100_VIS_H50um_30sX2
#Remark=	
#Date=	04.11.2021 17:55
#Acquired=	04.11.2021 17:55:30
1200.19	21.0114
1200.46	18.8537
1200.74	19.9211
1201.02	19.9063
1201.3	22.0444
1201.57	17.7351
1201.85	20.9603
1202.13	18.8269
1202.41	21.0172
1202.69	18.8465
1202.96	18.8393
1203.24	19.8953
1203.52	22.0438
1203.8	22.0314
1204.08	20.9657
1204.35	22.0389
1204.63	19.8835
1204.91	18.8004
1205.19	19.8667
1205.47	16.6368
1205.74	17.7018
1206.02	19.8382
1206.3	24.1162
1206.58	17.6772
1206.85	21.9552
1207.13	21.9502
1207.41	20.8747
1207.69	20.8715
1207.97	16.5862
1208.24	20.8601
1208.52	19.7852
1208.8	19.7809
1209.08	17.641
1209.36	19.7784
1209.63	19.7758
1209.91	20.8388
1210.19	20.8299
1210.46	20.8222
1210.74	20.8152
1211.02	21.875
1211.3	24.0012
1211.57	21.859
1211.85	19.7197
1212.13	19.7142
1212.41	20.7738
1212.69	19.7033
1212.96	18.6351
1213.24	22.8908
1213.52	26.0822
1213.79	17.5663
1214.07	16.5022
1214.35	19.6962
1214.63	20.7605
1214.9	18.6304
1215.18	20.7584
1215.46	22.8839
1215.74	22.8771
1216.01	18.6136
1216.29	20.7321
1216.57	19.6619
1216.85	21.7811
1217.12	21.7747
1217.4	22.8309
1217.68	23.8874
1217.95	19.6363
1218.23	22.8166
1218.51	22.8147
1218.79	21.7517
1219.06	21.7497
1219.34	23.8673
1219.62	23.8647
1219.89	21.7435
1220.17	18.5609
1220.45	22.8022
1220.73	22.7986
1221	23.8552
1221.28	21.7299
1221.56	20.663
1221.84	22.7727
1222.11	22.7618
1222.39	22.7502
1222.67	19.5672
1222.94	23.7864
1223.22	21.6647
1223.5	22.7127
1223.77	20.5935
1224.05	26.9246
1224.33	23.7523
1224.61	18.4725
1224.88	24.806
1225.16	25.8661
1225.44	24.8128
1225.71	21.6468
1225.99	24.8127
1226.27	24.8099
1226.54	27.9718
1226.82	25.8532
1227.1	25.8352
1227.37	24.7598
1227.65	25.7984
1227.93	23.6754
1228.21	22.6031
1228.48	25.7445
1228.76	20.5098
1229.03	26.884
1229.31	21.6314
1229.59	26.8817
1229.86	27.9161
1230.14	23.6989
1230.42	25.802
1230.69	27.8729
1230.97	22.5909
1231.25	23.6438
1231.52	22.5925
1231.8	26.7936
1232.08	26.7916
1232.35	26.7907
1232.63	25.738
1232.91	25.7362
1233.18	20.4841
1233.46	23.6372
1233.74	24.69
1234.01	21.5406
1234.29	25.7479
1234.57	23.649
1234.84	24.702
1235.12	25.756
1235.4	24.7076
1235.67	25.7602
1235.95	23.6556
1236.23	26.806
1236.5	19.4443
1236.78	23.6418
1237.06	21.5328
1237.33	22.575
1237.61	23.6167
1237.88	23.608
1238.16	24.6488
1238.44	26.7406
1238.71	22.5425
1238.99	24.6364
1239.27	25.6824
1239.54	24.6329
1239.82	19.3914
1240.1	21.488
1240.37	26.73
1240.65	23.5867
1240.92	21.4904
1241.2	21.4867
1241.48	21.4831
1241.75	25.6731
1242.03	26.7231
1242.3	26.7241
1242.58	23.5853
1242.86	24.6349
1243.13	20.4406
1243.41	21.4901
1243.68	21.4916
1243.96	21.4901
1244.24	26.73
1244.51	23.5823
1244.79	22.5281
1245.06	22.5226
1245.34	24.6077
1245.62	27.7415
1245.89	20.4122
1246.17	25.6441
1246.44	25.6451
1246.72	22.5037
1247	24.5949
1247.27	19.3618
1247.55	27.7291
1247.82	22.4882
1248.1	25.6236
1248.38	20.3941
1248.65	23.5337
1248.93	23.5346
1249.2	19.349
1249.48	24.5782
1249.75	23.5313
1250.03	23.5252
1250.31	26.6553
1250.58	22.4693
1250.86	20.3754
1251.13	26.6401
1251.41	21.4128
1251.69	22.4532
1251.96	22.449
1252.24	24.5325
1252.51	25.5712
1252.79	24.5237
1253.06	21.3917
1253.34	25.5674
1253.61	28.7031
1253.89	25.577
1254.17	28.7136
1254.44	25.5825
1254.72	26.6276
1254.99	25.5846
1255.27	24.5397
1255.54	21.4068
1255.82	23.4966
1256.09	27.6769
1256.37	26.6353
1256.65	26.6356
1256.92	26.633
1257.2	28.7185
1257.47	24.5392
1257.75	29.758
1258.02	25.5793
1258.3	25.5745
1258.57	29.7454
1258.85	27.6595
1259.13	32.8808
1259.4	29.7602
1259.67	32.8951
1259.95	28.7114
1260.23	30.7897
1260.5	29.7368
1260.78	29.7305
1261.05	32.8557
1261.33	31.8285
1261.6	38.1284
1261.88	36.0956
1262.15	43.3846
1262.43	39.1494
1262.7	43.2721
1262.98	48.5078
1263.25	52.7261
1263.53	46.4958
1263.8	47.5968
1264.08	44.4437
1264.35	38.1516
1264.63	43.3729
1264.9	30.8326
1265.18	31.8707
1265.45	27.6885
1265.73	29.7791
1266	26.647
1266.28	27.6964
1266.55	28.7474
1266.83	28.7546
1267.1	31.9004
1267.38	28.7712
1267.66	27.7347
1267.93	29.8431
1268.2	24.6135
1268.48	24.6178
1268.75	26.7172
1269.03	27.7678
1269.31	27.7628
1269.58	28.8033
1269.85	26.7006
1270.13	27.7422
1270.4	26.689
1270.68	31.9181
1270.95	30.8694
1271.23	27.7277
1271.5	29.8249
1271.78	27.7391
1272.05	26.7009
1272.33	26.7103
1272.6	26.7169
1272.88	28.8201
1273.15	31.9726
1273.43	29.8839
1273.7	27.7932
1273.98	25.6987
1274.25	26.7479
1274.53	29.8939
1274.8	30.9442
1275.07	30.9484
1275.35	26.7565
1275.62	27.8114
1275.9	28.8672
1276.17	27.8227
1276.45	27.8275
1276.72	22.5812
1277	34.1427
1277.27	33.1002
1277.54	29.9545
1277.82	33.1139
1278.1	29.9673
1278.37	34.1811
1278.64	33.1352
1278.92	37.3454
1279.19	42.6027
1279.47	37.3393
1279.74	43.6462
1280.02	45.7504
1280.29	58.3755
1280.56	56.2809
1280.84	71.0296
1281.11	100.519
1281.39	117.365
1281.66	162.631
1281.94	222.662
1282.21	287.934
1282.49	363.642
1282.76	441.201
1283.03	488.188
1283.31	511.25
1283.58	459.662
1283.86	353.129
1284.13	234.428
1284.41	170.19
1284.68	119.573
1284.95	90.0324
1285.23	71.0639
1285.5	57.3867
1285.78	51.078
1286.05	45.804
1286.32	43.6948
1286.6	38.4296
1286.87	35.2676
1287.15	35.2616
1287.42	34.2034
1287.69	34.2014
1287.97	32.0972
1288.24	32.0982
1288.52	33.1542
1288.79	32.1072
1289.06	31.0601
1289.34	26.8537
1289.61	26.8597
1289.89	28.9703
1290.16	30.0207
1290.43	28.9647
1290.71	30.0171
1290.98	25.804
1291.26	25.8037
1291.53	26.8555
1291.8	23.6973
1292.08	27.9121
1292.35	30.0145
1292.62	26.8543
1292.9	28.9635
1293.17	25.8159
1293.45	27.934
1293.72	30.0555
1293.99	26.8899
1294.27	26.8909
1294.54	22.6704
1294.82	26.8975
1295.09	29.0208
1295.36	26.9264
1295.64	24.8324
1295.91	22.7247
1296.18	23.7825
1296.46	25.8966
1296.73	26.9494
1297.01	22.7179
1297.28	25.8824
1297.55	22.7078
1297.83	24.8155
1298.1	23.7633
1298.37	27.9835
1298.65	25.8675
1298.92	25.864
1299.19	25.8608
1299.47	20.5844
1299.74	26.9229
1300.02	22.7013
1300.29	22.7013
1300.56	20.5886
1300.84	24.8117
1301.11	21.6463
1301.38	23.7624
1301.65	23.7655
1301.93	24.8234
1302.2	22.7111
1302.47	22.7104
1302.75	27.9896
1303.02	26.9298
1303.29	19.5349
1303.57	23.7584
1303.84	21.6469
1304.12	20.591
1304.39	24.8134
1304.66	20.587
1304.94	25.8607
1305.21	24.7997
1305.48	25.849
1305.75	23.7335
1306.03	22.6753
1306.3	21.6194
1306.57	23.7296
1306.85	25.8406
1307.12	21.622
1307.39	27.9501
1307.67	22.6772
1307.94	15.2939
1308.21	24.7863
1308.49	22.6792
1308.76	22.6826
1309.03	25.8514
1309.31	24.7996
1309.58	23.7454
1309.85	20.5783
1310.13	23.7434
1310.4	24.7992
1310.67	23.7452
1310.94	24.8018
1311.22	21.6367
1311.49	22.6951
1311.76	24.8106
1312.04	18.4781
1312.31	22.7028
1312.58	20.5884
1312.85	21.6417
1313.13	22.6968
1313.4	22.6946
1313.67	23.7491
1313.95	22.6941
1314.22	23.7516
1314.49	24.81
1314.76	20.5896
1315.04	21.6482
1315.31	18.4827
1315.58	19.5403
1315.86	21.6515
1316.13	24.8187
1316.4	23.7618
1316.67	19.5371
1316.95	19.5381
1317.22	17.4283
1317.49	23.7679
1317.77	22.7128
1318.04	22.7136
1318.31	21.6576
1318.58	21.6574
1318.86	23.7696
1319.13	19.5432
1319.4	22.7125
1319.67	21.6571
1319.95	23.7698
1320.22	19.5424
1320.49	22.7075
1320.76	20.5901
1321.04	23.7508
1321.31	23.7448
1321.58	20.5742
1321.85	22.6794
1322.13	21.6216
1322.4	20.5641
1322.67	20.5603
1322.94	23.7222
1323.22	23.7243
1323.49	17.3985
1323.76	19.5073
1324.03	20.5617
1324.31	25.8335
1324.58	18.4533
1324.85	21.6154
1325.12	21.608
1325.4	24.7584
1325.67	24.7415
1325.94	20.5195
1326.21	21.5669
1326.48	22.6203
1326.76	21.58
1327.03	25.8038
1327.3	22.652
1327.57	23.7143
1327.85	18.4518
1328.12	22.6777
1328.39	25.8492
1328.66	22.6819
1328.93	22.6828
1329.21	24.7936
1329.48	24.7923
1329.75	20.5703
1330.02	20.5673
1330.3	21.6177
1330.57	24.7748
1330.84	23.7131
1331.11	24.7563
1331.38	21.5871
1331.66	22.6334
1331.93	21.5746
1332.2	19.4637
1332.47	22.6118
1332.74	23.6556
1333.01	22.597
1333.29	23.6412
1333.56	21.5336
1333.83	21.5279
1334.1	22.5722
1334.37	20.4678
1334.65	22.5627
1334.92	20.4599
1335.19	18.3581
1335.46	18.355
1335.73	19.4007
1336.01	20.4466
1336.28	21.4923
1336.55	21.4901
1336.82	23.5846
1337.09	21.4865
1337.37	21.4838
1337.64	22.5246
1337.91	20.4259
1338.18	24.6125
1338.45	22.5137
1338.72	20.4182
1339	22.5122
1339.27	23.5609
1339.54	19.3732
1339.81	22.515
1340.08	20.4217
1340.35	22.5167
1340.63	20.4213
1340.9	21.4676
1341.17	20.4186
1341.44	20.4161
1341.71	23.5528
1341.98	20.4077
1342.26	21.4484
1342.53	20.3973
1342.8	23.5332
1343.07	23.5318
1343.34	24.5772
1343.61	24.5772
1343.88	21.4401
1344.16	24.5771
1344.43	18.2999
1344.7	23.524
1344.97	19.3371
1345.24	20.376
1345.51	20.3708
1345.79	22.4512
1346.06	22.4408
1346.33	21.3909
1346.6	21.3845
1346.87	23.4637
1347.14	19.2877
1347.41	22.4119
1347.68	22.4094
1347.95	20.3232
1348.23	21.3634
1348.5	26.5694
1348.77	21.3557
1349.04	19.2686
1349.31	22.3892
1349.58	22.3852
1349.86	21.3403
1350.13	21.3359
1350.4	20.2901
1350.67	24.4469
1350.94	23.402
1351.21	19.2381
1351.48	22.3565
1351.75	24.4371
1352.02	25.4809
1352.3	24.4471
1352.57	22.3716
1352.84	21.3402
1353.11	23.4443
1353.38	22.4065
1353.65	23.421
1353.92	24.4289
1354.19	25.4546
1354.46	27.536
1354.73	21.2995
1355.01	22.3292
1355.28	25.4465
1355.55	25.4588
1355.82	24.4137
1356.09	20.2556
1356.36	22.3311
1356.63	24.4064
1356.9	26.4807
1357.17	25.4386
1357.44	27.5108
1357.71	21.2782
1357.99	23.3499
1358.26	24.3838
1358.53	24.3783
1358.8	24.3742
1359.07	20.2228
1359.34	26.4419
1359.61	23.3233
1359.88	26.426
1360.15	23.3106
1360.42	25.3793
1360.69	23.3064
1360.96	22.2706
1361.23	24.3409
1361.5	22.268
1361.78	25.3715
1362.05	23.2983
1362.32	27.4377
1362.59	25.367
1362.86	29.5116
1363.13	26.4102
1363.4	28.4844
1363.67	25.3799
1363.94	28.4859
1364.21	26.4123
1364.48	26.4089
1364.75	22.2619
1365.02	28.468
1365.29	22.2516
1365.56	25.3508
1365.83	28.4486
1366.11	27.4073
1366.38	25.331
1366.65	25.3232
1366.92	23.2536
1367.19	24.2861
1367.46	26.3571
1367.73	25.325
1368	30.4952
1368.27	29.4633
1368.54	37.7363
1368.81	52.2148
1369.08	47.0456
1369.35	36.701
1369.62	33.5958
1369.89	23.255
1370.16	29.4496
1370.43	29.4456
1370.7	27.3734
1370.97	28.3978
1371.24	26.3232
1371.51	27.3448
1371.78	24.2403
1372.05	28.3574
1372.32	28.351
1372.59	26.285
1372.86	27.3123
1373.13	29.3702
1373.4	27.3066
1373.67	29.3652
1373.94	29.3632
1374.21	31.4216
1374.48	27.2981
1374.75	28.3265
1375.02	31.4191
1375.29	32.4513
1375.56	30.3914
1375.83	30.3894
1376.1	30.382
1376.37	31.4033
1376.64	30.362
1376.91	29.327
1377.18	33.4489
1377.45	35.5183
1377.72	35.5335
1377.99	35.5528
1378.26	38.6597
1378.53	33.508
1378.8	37.6293
1379.07	32.4703
1379.34	34.5264
1379.61	35.5478
1379.88	34.4957
1380.15	37.5609
1380.42	36.514
1380.69	38.568
1380.96	43.7102
1381.23	44.7232
1381.5	44.7015
1381.77	44.6806
1382.04	42.6102
1382.31	47.7253
1382.58	46.684
1382.85	49.7468
1383.12	52.8119
1383.39	56.903
1383.66	55.8747
1383.93	62.0288
1384.2	74.3419
1384.47	84.6121
1384.74	108.241
1385.01	119.565
1385.28	160.662
1385.55	224.342
1385.82	328.108
1386.09	487.361
1386.36	750.35
1386.62	1060.48
1386.89	1163.52
1387.16	940.235
1387.43	598.424
1387.7	347.084
1387.97	225.768
1388.24	144.054
1388.51	111.374
1388.78	79.5665
1389.05	73.424
1389.32	65.205
1389.59	52.8572
1389.86	47.68
1390.13	45.6381
1390.4	42.5432
1390.67	38.4333
1390.94	41.5072
1391.21	38.4263
1391.47	34.3189
1391.74	39.4311
1392.01	32.2555
1392.28	35.3222
1392.55	35.3177
1392.82	27.1252
1393.09	32.2401
1393.36	29.1671
1393.63	32.2349
1393.9	35.3027
1394.17	25.0686
1394.44	30.1839
1394.71	31.2131
1394.97	30.194
1395.24	30.1973
1395.51	26.1032
1395.78	28.149
1396.05	30.1932
1396.32	27.1193
1396.59	26.0927
1396.86	23.0181
1397.13	32.2205
1397.4	29.1501
1397.66	26.0822
1397.93	25.0617
1398.2	30.1796
1398.47	27.1122
1398.74	26.0914
1399.01	26.0956
1399.28	25.0748
1399.55	29.1705
1399.82	27.1245
1400.09	22.0108
1400.35	24.0633
1400.62	27.137
1400.89	27.1374
1401.16	28.1638
1401.43	24.07
1401.7	26.1296
1401.97	24.0943
1402.24	24.1076
1402.5	27.1959
1402.77	32.3357
1403.04	27.2059
1403.31	28.2307
1403.58	28.2209
1403.85	34.3685
1404.12	26.1627
1404.39	26.1602
1404.65	30.2596
1404.92	31.2799
1405.19	34.3505
1405.46	36.3951
1405.73	35.3651
1406	35.3617
1406.27	38.4356
1406.54	43.563
1406.8	41.5163
1407.07	44.5951
1407.34	51.7746
1407.61	64.0814
1407.88	66.136
1408.15	68.1913
1408.42	69.2226
1408.68	67.1777
1408.95	61.0293
1409.22	53.8533
1409.49	52.8303
1409.76	36.4143
1410.03	33.3297
1410.29	33.3199
1410.56	30.2359
1410.83	26.1308
1411.1	24.0776
1411.37	30.222
1411.64	26.1251
1411.9	29.2042
1412.17	23.0642
1412.44	25.1377
1412.71	23.1106
1412.98	26.1951
1413.25	21.0321
1413.51	23.0695
1413.78	22.0539
1414.05	22.0689
1414.32	23.0995
1414.59	24.1261
1414.86	21.0467
1415.12	21.0469
1415.39	27.2087
1415.66	24.1306
1415.93	23.1061
1416.2	19.0003
1416.47	25.1655
1416.73	22.0867
1417	24.1443
1417.27	22.0915
1417.54	24.1476
1417.81	23.1206
1418.07	21.0669
1418.34	22.0949
1418.61	23.1238
1418.88	23.1232
1419.15	21.0649
1419.41	23.1155
1419.68	21.0569
1419.95	17.9721
1420.22	31.3163
1420.49	23.0975
1420.75	24.1202
1421.02	23.0931
1421.29	18.9899
1421.56	23.1045
1421.83	22.0834
1422.09	26.2033
1422.36	24.1622
1422.63	25.2171
1422.9	24.2041
1423.17	21.0183
1423.43	24.1048
1423.7	23.0658
1423.97	20.9951
1424.24	23.0598
1424.5	24.0802
1424.77	22.0621
1425.04	23.0671
1425.31	20.0039
1425.58	21.0302
1425.84	16.9257
1426.11	22.0494
1426.38	18.9681
1426.65	19.9878
1426.91	21.0068
1427.18	22.0212
1427.45	23.0403
1427.72	22.0136
1427.98	22.0131
1428.25	18.9423
1428.52	23.0396
1428.79	19.9696
1429.06	18.9481
1429.32	21.0002
1429.59	18.956
1429.86	23.0612
1430.12	19.99
1430.39	21.023
1430.66	17.955
1430.93	18.9863
1431.2	17.9621
1431.46	20.0139
1431.73	22.0614
1432	21.0306
1432.26	22.0538
1432.53	21.0201
1432.8	26.1374
1433.07	21.0034
1433.33	19.9718
1433.6	19.9683
1433.87	19.9684
1434.14	19.9803
1434.4	17.9321
1434.67	22.0317
1434.94	17.9328
1435.21	21.0064
1435.47	19.9808
1435.74	22.0288
1436.01	19.9782
1436.28	22.0253
1436.54	23.0477
1436.81	22.0219
1437.08	20.997
1437.34	24.0671
1437.61	18.9463
1437.88	20.9967
1438.15	18.9509
1438.41	17.9279
1438.68	22.0266
1438.95	18.9549
1439.21	21.008
1439.48	18.9632
1439.75	19.9929
1440.01	22.0458
1440.28	23.0723
1440.55	15.8948
1440.82	16.9206
1441.08	21.0204
1441.35	19.9923
1441.62	19.9929
1441.88	19.9957
1442.15	19.9977
1442.42	19.9994
1442.69	21.0221
1442.95	23.0695
1443.22	21.0163
1443.49	17.9395
1443.75	19.9897
1444.02	19.9928
1444.29	23.0749
1444.55	17.9523
1444.82	18.9814
1445.09	22.0577
1445.35	17.9524
1445.62	18.9767
1445.89	18.9753
1446.15	23.0765
1446.42	18.9726
1446.69	17.9457
1446.95	15.8931
1447.22	17.9417
1447.49	18.9657
1447.76	18.967
1448.02	18.971
1448.29	19.9997
1448.56	22.0519
1448.82	18.9742
1449.09	21.0235
1449.35	18.9698
1449.62	18.9667
1449.89	19.9895
1450.15	21.013
1450.42	16.9116
1450.69	19.985
1450.96	18.9585
1451.22	19.9814
1451.49	17.9305
1451.75	16.9048
1452.02	22.0272
1452.29	15.8805
1452.55	21.005
1452.82	17.9332
1453.09	17.9345
1453.35	19.9837
1453.62	18.9576
1453.89	22.0313
1454.15	16.9079
1454.42	18.9573
1454.68	19.9811
1454.95	18.9555
1455.22	18.9576
1455.48	22.0351
1455.75	17.9367
1456.02	18.9612
1456.28	18.959
1456.55	22.0296
1456.82	19.978
1457.08	16.9034
1457.35	21
1457.61	17.9266
1457.88	18.9512
1458.15	18.952
1458.41	18.9532
1458.68	15.8804
1458.95	18.9549
1459.21	19.9795
1459.48	17.9295
1459.74	19.9773
1460.01	14.8539
1460.28	16.9013
1460.54	16.8993
1460.81	19.9695
1461.08	18.943
1461.34	18.9402
1461.61	18.9371
1461.87	15.8632
1462.14	17.9065
1462.41	17.9026
1462.67	14.8302
1462.94	17.8944
1463.2	18.9135
1463.47	17.8926
1463.74	16.8777
1464	19.9544
1464.27	20.9851
1464.53	19.9726
1464.8	18.9138
1465.07	14.805
1465.33	19.8976
1465.6	20.9231
1465.86	16.8443
1466.13	18.8805
1466.39	19.892
1466.66	15.8135
1466.93	17.8539
1467.19	18.8728
1467.46	18.8716
1467.72	17.8511
1467.99	17.8509
1468.26	17.8504
1468.52	20.909
1468.79	16.8274
1469.05	19.8845
1469.32	16.8215
1469.58	16.8178
1469.85	18.8532
1470.12	17.832
1470.38	19.8678
1470.65	19.8669
1470.91	17.8258
1471.18	17.8226
1471.44	15.7841
1471.71	16.8016
1471.97	17.8193
1472.24	17.8189
1472.51	15.782
1472.77	15.7805
1473.04	14.7599
1473.3	17.8114
1473.57	14.7564
1473.83	19.8439
1474.1	17.809
1474.36	19.8469
1474.63	19.8476
1474.9	18.8299
1475.16	15.7757
1475.43	18.827
1475.69	15.7717
1475.96	20.8579
1476.22	16.7865
1476.49	16.7834
1476.75	17.798
1477.02	19.8311
1477.29	19.8306
1477.55	18.8131
1477.81	17.7935
1478.08	17.7901
1478.34	19.8205
1478.61	20.8338
1478.88	17.7819
1479.14	14.7307
1479.41	18.7904
1479.67	19.8011
1479.94	15.7341
1480.2	17.7598
1480.47	16.7423
1480.73	19.7842
1481	16.7391
1481.26	15.7265
1481.53	18.7735
1481.79	17.7621
1482.06	19.7958
1482.32	17.7673
1482.59	15.7374
1482.85	16.7544
1483.12	19.8016
1483.38	18.786
1483.65	16.7524
1483.92	15.7301
1484.18	19.7752
1484.44	20.7651
1484.71	20.7438
1484.97	17.6972
1485.24	18.7151
1485.5	20.7709
1485.77	16.7238
1486.03	19.7612
1486.3	16.713
1486.56	16.7195
1486.83	17.7326
1487.09	20.7669
1487.36	18.7373
1487.62	16.7092
1487.89	16.7062
1488.15	21.7638
1488.42	20.747
1488.68	15.6843
1488.95	18.7181
1489.21	16.6932
1489.48	18.7159
1489.74	18.7158
1490.01	16.6916
1490.27	16.6892
1490.54	20.7309
1490.8	17.6943
1491.07	20.7261
1491.33	15.6705
1491.6	19.7149
1491.86	18.7042
1492.12	19.7144
1492.39	15.6697
1492.65	18.7023
1492.92	18.7018
1493.18	15.6681
1493.45	16.6787
1493.71	19.7118
1493.98	20.7244
1494.24	20.7253
1494.51	13.6473
1494.77	17.6873
1495.04	15.6609
1495.3	15.6556
1495.56	18.6812
1495.83	16.6589
1496.09	17.6663
1496.36	16.6545
1496.62	18.6717
1496.89	15.6439
1497.15	18.6711
1497.42	17.6611
1497.68	17.6609
1497.94	15.6428
1498.21	16.6525
1498.47	16.6531
1498.74	18.6726
1499	18.674
1499.27	17.6662
1499.53	17.6674
1499.8	15.6487
1500.06	19.6866
1500.32	15.6479
1500.59	18.6757
1500.85	15.6447
1501.12	17.661
1501.38	16.651
1501.64	18.6688
1501.91	16.6498
1502.17	15.6385
1502.44	18.6611
1502.7	15.6329
1502.97	15.6302
1503.23	17.645
1503.5	21.6793
1503.76	18.6557
1504.02	16.6394
1504.29	18.6562
1504.55	19.6634
1504.81	19.6611
1505.08	15.6254
1505.34	15.6195
1505.61	20.6536
1505.87	18.6378
1506.13	18.6371
1506.4	15.6169
1506.66	16.6258
1506.93	16.6267
1507.19	18.6426
1507.46	20.6574
1507.72	16.6254
1507.98	17.6326
1508.25	16.6256
1508.51	16.6261
1508.77	15.6186
1509.04	17.6335
1509.3	17.6339
1509.57	18.6448
1509.83	16.6278
1510.09	17.6324
1510.36	16.6214
1510.62	20.646
1510.89	17.6192
1511.15	17.6112
1511.41	18.6075
1511.68	16.5879
1511.94	18.5892
1512.21	16.574
1512.47	16.57
1512.73	17.5704
1513	16.5635
1513.26	19.5747
1513.52	18.5782
1513.79	17.5792
1514.05	14.5655
1514.31	19.5854
1514.58	19.58
1514.84	17.5677
1515.1	15.5556
1515.37	19.5641
1515.63	15.5464
1515.9	16.547
1516.16	17.5484
1516.42	19.5524
1516.69	17.546
1516.95	16.5433
1517.21	19.5518
1517.48	18.5513
1517.74	17.5511
1518	17.5521
1518.27	18.5563
1518.53	18.5576
1518.79	18.5592
1519.06	17.5572
1519.32	17.5577
1519.58	17.557
1519.85	18.5586
1520.11	23.5739
1520.37	13.5434
1520.64	14.5481
1520.9	19.5661
1521.16	18.5629
1521.43	18.5619
1521.69	18.5601
1521.95	17.5549
1522.22	16.5499
1522.48	16.5479
1522.75	16.5445
1523.01	18.5438
1523.27	20.5413
1523.53	17.5311
1523.8	17.5276
1524.06	16.5233
1524.32	19.5263
1524.59	17.5252
1524.85	19.529
1525.11	16.5257
1525.38	17.5301
1525.64	19.5377
1525.9	18.5403
1526.17	16.5387
1526.43	15.5371
1526.69	17.5407
1526.95	17.5388
1527.22	17.5376
1527.48	19.5403
1527.74	15.5305
1528.01	17.5325
