#Acq. time (s)=	30
#Accumulations=	2
#Range (cm-¹)=	1200...2365
#Windows=	3
#Auto scanning=	Off
#Autofocus=	Off
#Macrospot=	Off
#AutoExposure=	Off
#Spike filter=	Multiple accum.
#Delay time (s)=	2
#Binning=	1
#Readout mode=	Signal
#DeNoise=	Off
#ICS correction=	On
#Dark correction=	Off
#Inst. Process=	Off
#Detector Gain=	Best Dynamic
#Detector ADC=	50 kHz HS
#Detector temperature (°C)=	-60.09
#Instrument=	LabRAM HR Evol
#Detector=	SIN-EM FIVIS
#Objective=	x100_VIS_LWD
#Grating=	1800 (450-850nm)
#ND Filter=	100%
#Laser=	532nm_Edge
#Hole=	100.021
#Temperature=	0
#Range=	Visible
#StageXY=	75x50mm Scan+
#StageZ=	Z motor
#X (µm)=	0
#Y (µm)=	0
#Z (µm)=	-14.5
#Full time(mm:ss)=	3:20
#Project=	21_11_26
#Sample=	BU19(2)w
#Site=	
#Title=	BU19(2)w-A-FF1-FI04-V_1800 (450-850nm)_532nm_Edge_100%_x100_VIS_LWD_H100um_30sX2
#Remark=	
#Date=	26.11.2021 13:26
#Acquired=	26.11.2021 13:26:35
1202.72	409.197
1203	404.403
1203.28	414.233
1203.56	390.297
1203.84	384.619
1204.11	391.96
1204.39	396.106
1204.67	415.473
1204.95	398.319
1205.23	407.915
1205.5	405.61
1205.78	403.294
1206.06	421.355
1206.34	376.085
1206.61	403.793
1206.89	406.818
1207.17	380.908
1207.45	393.613
1207.73	403.149
1208	410.545
1208.28	379.436
1208.56	401.831
1208.84	393.151
1209.11	383.416
1209.39	407.909
1209.67	389.683
1209.95	384.321
1210.23	390.699
1210.5	379.931
1210.78	402.207
1211.06	404.181
1211.34	395.509
1211.61	391.09
1211.89	403.774
1212.17	379.083
1212.45	392.795
1212.72	393.753
1213	387.245
1213.28	371.15
1213.56	391.308
1213.83	388.063
1214.11	400.755
1214.39	396.514
1214.67	375.234
1214.94	376.303
1215.22	398.656
1215.5	405.027
1215.78	393.295
1216.05	390.069
1216.33	399.545
1216.61	377.062
1216.89	398.165
1217.16	401.194
1217.44	398.945
1217.72	394.579
1218	385.968
1218.27	386.939
1218.55	403.836
1218.83	400.566
1219.1	383.539
1219.38	380.328
1219.66	391.962
1219.94	399.337
1220.21	391.841
1220.49	381.221
1220.77	395.009
1221.04	401.35
1221.32	389.643
1221.6	404.416
1221.88	392.681
1222.15	379.848
1222.43	406.184
1222.71	403.879
1222.98	390.975
1223.26	386.557
1223.54	394.839
1223.81	407.357
1224.09	383.968
1224.37	389.113
1224.65	392.184
1224.92	393.163
1225.2	387.831
1225.48	404.708
1225.76	375.197
1226.03	397.407
1226.31	396.401
1226.59	374.204
1226.86	380.51
1227.14	381.493
1227.42	389.87
1227.69	397.051
1227.97	378.753
1228.25	396.428
1228.52	390.937
1228.8	389.513
1229.08	386.062
1229.35	399.69
1229.63	388.036
1229.91	387.805
1230.18	384.274
1230.46	400.767
1230.74	392.198
1231.01	396.453
1231.29	396.218
1231.57	388.084
1231.84	385.001
1232.12	394.45
1232.4	383.927
1232.67	402.792
1232.95	392.274
1233.23	390.15
1233.5	399.565
1233.78	389.049
1234.06	396.422
1234.33	394.355
1234.61	396.495
1234.89	386.043
1235.16	399.769
1235.44	371.42
1235.71	399.836
1235.99	401.986
1236.27	378.886
1236.54	397.804
1236.82	385.138
1237.1	390.331
1237.37	398.652
1237.65	403.769
1237.93	363.717
1238.2	390.88
1238.48	393.886
1238.76	401.086
1239.03	390.486
1239.31	415.583
1239.58	388.266
1239.86	396.61
1240.14	396.583
1240.41	399.713
1240.69	370.361
1240.97	394.479
1241.24	417.56
1241.52	393.463
1241.79	398.667
1242.07	406.978
1242.35	381.781
1242.62	391.217
1242.9	395.432
1243.18	400.728
1243.45	392.394
1243.73	396.58
1244	399.727
1244.28	396.607
1244.56	401.843
1244.83	393.429
1245.11	400.726
1245.39	405.878
1245.66	403.679
1245.94	388.876
1246.21	392.933
1246.49	407.531
1246.76	406.451
1247.04	403.312
1247.32	399.115
1247.59	400.127
1247.87	414.77
1248.14	404.259
1248.42	406.2
1248.7	406.12
1248.97	397.732
1249.25	394.617
1249.52	406.151
1249.8	383.113
1250.08	374.732
1250.35	398.79
1250.63	395.568
1250.9	401.737
1251.18	397.465
1251.45	397.386
1251.73	411.942
1252.01	390.977
1252.28	395.082
1252.56	410.672
1252.83	400.154
1253.11	412.593
1253.39	404.164
1253.66	385.34
1253.94	400.993
1254.21	409.406
1254.49	376.078
1254.76	397.04
1255.04	398.117
1255.31	399.16
1255.59	401.279
1255.87	396.056
1256.14	400.212
1256.42	411.716
1256.69	404.437
1256.97	401.361
1257.24	407.647
1257.52	403.446
1257.79	389.811
1258.07	425.28
1258.35	422.114
1258.62	427.297
1258.9	409.501
1259.17	425.059
1259.45	412.523
1259.72	419.876
1260	403.233
1260.27	408.62
1260.55	436.705
1260.82	439.73
1261.1	430.179
1261.37	448.851
1261.65	434.174
1261.92	429.017
1262.2	459.678
1262.48	468.643
1262.75	464.752
1263.02	490.102
1263.3	479.079
1263.58	510.141
1263.85	521.077
1264.13	514.162
1264.4	507.326
1264.68	491.888
1264.95	453.944
1265.23	472.644
1265.5	420.384
1265.78	441.248
1266.05	422.359
1266.33	425.49
1266.6	438.059
1266.88	411.99
1267.15	416.247
1267.43	429.934
1267.7	411.223
1267.98	420.757
1268.25	409.383
1268.53	398.048
1268.8	408.664
1269.08	401.411
1269.35	415.095
1269.63	423.528
1269.9	409.881
1270.18	397.219
1270.45	406.522
1270.73	422.139
1271	407.382
1271.28	412.543
1271.55	409.375
1271.83	422.921
1272.1	419.813
1272.38	409.443
1272.65	420.027
1272.93	397.145
1273.2	411.914
1273.47	426.692
1273.75	395.36
1274.03	414.335
1274.3	420.736
1274.57	416.609
1274.85	432.362
1275.12	422.903
1275.4	420.806
1275.67	433.439
1275.95	409.378
1276.22	414.696
1276.5	425.291
1276.77	424.318
1277.05	418.099
1277.32	421.307
1277.6	427.712
1277.87	432.018
1278.14	426.866
1278.42	418.541
1278.69	431.234
1278.97	437.667
1279.24	440.892
1279.52	447.276
1279.79	441.99
1280.07	467.199
1280.34	466.09
1280.61	481.847
1280.89	494.505
1281.16	532.42
1281.44	579.899
1281.71	635.861
1281.99	715.946
1282.26	849.61
1282.53	986.541
1282.81	1178.27
1283.08	1485.44
1283.36	1800.35
1283.63	2163.55
1283.91	2370.82
1284.18	2377.08
1284.45	2008.26
1284.73	1523.57
1285	1118.16
1285.28	832.579
1285.55	695.259
1285.83	593.947
1286.1	558.161
1286.37	521.423
1286.65	500.356
1286.92	476.046
1287.2	454.981
1287.47	448.636
1287.75	458.043
1288.02	446.385
1288.29	438.97
1288.57	416.865
1288.84	440.028
1289.12	435.849
1289.39	416.967
1289.66	434.939
1289.94	438.177
1290.21	441.428
1290.49	409.901
1290.76	415.166
1291.03	425.653
1291.31	426.682
1291.58	417.196
1291.86	427.723
1292.13	421.387
1292.4	414.018
1292.68	402.458
1292.95	435.084
1293.22	409.774
1293.5	406.635
1293.77	425.73
1294.05	411.15
1294.32	414.488
1294.59	403.99
1294.87	407.155
1295.14	410.289
1295.42	417.745
1295.69	405.259
1295.96	424.482
1296.24	390.979
1296.51	419.676
1296.79	415.492
1297.06	380.621
1297.33	408.059
1297.61	415.385
1297.88	402.623
1298.15	417.319
1298.43	405.592
1298.7	402.471
1298.97	400.327
1299.25	419.266
1299.52	394.927
1299.79	417.03
1300.07	414.914
1300.34	417.098
1300.62	406.582
1300.89	398.146
1301.16	393.904
1301.44	399.168
1301.71	413.969
1301.98	411.927
1302.25	407.766
1302.53	400.406
1302.8	387.742
1303.08	397.243
1303.35	399.33
1303.62	406.679
1303.9	417.165
1304.17	398.143
1304.44	402.375
1304.72	409.768
1304.99	406.594
1305.26	403.377
1305.54	413.862
1305.81	407.436
1306.08	388.351
1306.35	394.586
1306.63	396.617
1306.9	409.237
1307.18	399.744
1307.45	415.599
1307.72	408.228
1308	412.441
1308.27	404
1308.54	389.254
1308.81	412.435
1309.09	406.128
1309.36	401.972
1309.63	410.469
1309.91	407.363
1310.18	402.124
1310.45	405.279
1310.73	384.147
1311	398.921
1311.27	409.491
1311.55	394.737
1311.82	411.642
1312.09	404.287
1312.37	393.799
1312.64	392.8
1312.91	395.995
1313.18	421.319
1313.46	423.363
1313.73	412.791
1314	393.753
1314.28	411.668
1314.55	405.334
1314.82	409.58
1315.09	395.896
1315.37	408.615
1315.64	411.831
1315.91	407.661
1316.18	406.658
1316.46	410.865
1316.73	407.67
1317	404.484
1317.28	404.473
1317.55	410.808
1317.82	415.091
1318.09	404.568
1318.37	402.481
1318.64	402.497
1318.91	390.885
1319.18	404.62
1319.46	403.552
1319.73	405.648
1320	394.013
1320.28	406.716
1320.55	389.818
1320.82	420.431
1321.09	400.302
1321.37	407.604
1321.64	377.929
1321.91	388.363
1322.18	397.789
1322.46	397.677
1322.73	412.389
1323	412.332
1323.27	408.052
1323.55	397.431
1323.82	412.238
1324.09	433.344
1324.36	393.281
1324.64	397.487
1324.91	395.384
1325.18	406.971
1325.45	397.506
1325.73	399.512
1326	400.386
1326.27	401.209
1326.54	403.029
1326.81	411.328
1327.09	411.296
1327.36	396.699
1327.63	410.649
1327.9	390.778
1328.18	411.991
1328.45	401.608
1328.72	391.217
1328.99	412.44
1329.27	413.533
1329.54	413.482
1329.81	405.085
1330.08	407.177
1330.35	390.264
1330.63	388.104
1330.9	397.523
1331.17	398.483
1331.44	401.526
1331.71	399.263
1331.99	411.727
1332.26	406.32
1332.53	420.942
1332.8	434.493
1333.07	416.462
1333.35	397.387
1333.62	399.359
1333.89	403.441
1334.16	406.477
1334.43	400.062
1334.71	429.355
1334.98	404.057
1335.25	411.319
1335.52	402.844
1335.79	412.21
1336.07	416.333
1336.34	396.336
1336.61	417.249
1336.88	399.368
1337.15	417.143
1337.43	408.717
1337.7	404.489
1337.97	409.685
1338.24	413.774
1338.51	403.203
1338.78	408.38
1339.06	411.454
1339.33	401.984
1339.6	414.537
1339.87	401.986
1340.14	405.149
1340.42	415.629
1340.69	400.983
1340.96	417.752
1341.23	406.223
1341.5	400.968
1341.77	394.656
1342.04	400.894
1342.32	417.579
1342.59	403.882
1342.86	407.96
1343.13	390.069
1343.4	403.612
1343.67	423.453
1343.95	411.933
1344.22	410.883
1344.49	408.799
1344.76	409.844
1345.03	410.852
1345.3	405.556
1345.58	406.509
1345.85	396.975
1346.12	412.546
1346.39	415.539
1346.66	412.201
1346.93	398.502
1347.2	409.858
1347.47	398.258
1347.75	408.573
1348.02	400.158
1348.29	403.233
1348.56	428.211
1348.83	415.673
1349.1	399.977
1349.37	414.488
1349.65	385.241
1349.92	393.501
1350.19	413.213
1350.46	402.729
1350.73	412.022
1351	407.758
1351.27	407.655
1351.54	419.029
1351.81	403.323
1352.09	413.69
1352.36	401.204
1352.63	422.049
1352.9	399.255
1353.17	410.821
1353.44	412.967
1353.71	417.481
1353.98	424.123
1354.25	402.894
1354.53	417.891
1354.8	408.114
1355.07	412.314
1355.34	418.582
1355.61	424.668
1355.88	402.78
1356.15	413.305
1356.42	406.063
1356.69	425.713
1356.96	420.477
1357.24	413.169
1357.51	411.051
1357.78	414.112
1358.05	418.2
1358.32	406.709
1358.59	413.899
1358.86	430.432
1359.13	407.519
1359.4	429.223
1359.67	414.641
1359.94	411.476
1360.22	410.333
1360.49	415.393
1360.76	401.807
1361.03	428.665
1361.3	416.2
1361.57	428.622
1361.84	420.319
1362.11	419.258
1362.38	416.101
1362.65	407.772
1362.92	423.263
1363.19	418.07
1363.46	418.096
1363.73	419.202
1364	431.683
1364.28	418.269
1364.55	434.838
1364.82	424.45
1365.09	420.261
1365.36	421.221
1365.63	427.339
1365.9	432.412
1366.17	414.722
1366.44	419.801
1366.71	429.011
1366.98	417.512
1367.25	422.536
1367.52	414.201
1367.79	415.194
1368.06	425.583
1368.33	428.716
1368.6	452.516
1368.87	459.78
1369.15	508.397
1369.41	510.506
1369.68	482.623
1369.95	454.65
1370.23	442.192
1370.5	426.636
1370.77	415.158
1371.04	434.735
1371.31	428.456
1371.58	436.599
1371.85	440.583
1372.12	424.928
1372.39	425.797
1372.66	427.711
1372.93	421.411
1373.2	433.709
1373.47	438.804
1373.74	442.871
1374.01	436.642
1374.28	425.27
1374.55	430.391
1374.82	444.785
1375.09	430.328
1375.36	432.333
1375.63	444.711
1375.9	441.675
1376.17	445.784
1376.44	429.325
1376.71	436.424
1376.98	443.525
1377.25	434.114
1377.52	451.426
1377.79	445.307
1378.06	449.538
1378.33	450.744
1378.6	442.724
1378.87	453.275
1379.14	457.474
1379.41	443.023
1379.68	445.026
1379.95	460.422
1380.22	475.784
1380.49	453.948
1380.76	473.138
1381.03	465.719
1381.3	473.772
1381.57	486.192
1381.84	449.047
1382.11	480.701
1382.38	470.189
1382.65	481.287
1382.92	491.377
1383.19	505.555
1383.46	508.49
1383.73	522.699
1384	552.341
1384.27	533.809
1384.54	526.649
1384.81	610.772
1385.08	641.648
1385.34	727.992
1385.61	817.556
1385.88	939.924
1386.15	1199.89
1386.42	1639.54
1386.69	2338.27
1386.96	3472.47
1387.23	4656.72
1387.5	4935.27
1387.77	3854.31
1388.04	2469.3
1388.31	1537.82
1388.58	1034.14
1388.85	809.255
1389.12	687.11
1389.39	620.804
1389.66	552.058
1389.93	543.908
1390.2	509.848
1390.46	485.859
1390.73	504.139
1391	490.791
1391.27	497.766
1391.54	462.877
1391.81	479.231
1392.08	457.606
1392.35	458.512
1392.62	446.121
1392.89	459.355
1393.16	459.292
1393.43	443.885
1393.7	446.91
1393.97	431.517
1394.23	424.318
1394.5	439.638
1394.77	436.54
1395.04	447.778
1395.31	428.383
1395.58	438.688
1395.85	424.41
1396.12	447.974
1396.39	457.172
1396.66	434.616
1396.93	431.494
1397.2	433.485
1397.46	421.127
1397.73	422.071
1398	424.077
1398.27	431.232
1398.54	439.444
1398.81	426.196
1399.08	421.11
1399.35	432.387
1399.62	443.716
1399.89	433.53
1400.16	421.289
1400.42	409.003
1400.69	431.58
1400.96	429.641
1401.23	435.836
1401.5	435.819
1401.77	437.92
1402.04	436.892
1402.31	415.526
1402.58	426.011
1402.84	413.962
1403.11	429.537
1403.38	446.097
1403.65	416.393
1403.92	444.117
1404.19	429.656
1404.46	448.906
1404.73	432.556
1404.99	432.518
1405.26	429.39
1405.53	439.571
1405.8	463.075
1406.07	445.564
1406.34	459.845
1406.61	476.197
1406.87	477.184
1407.14	472.082
1407.41	498.768
1407.68	524.439
1407.95	558.304
1408.22	574.742
1408.49	610.662
1408.76	666.071
1409.02	641.509
1409.29	617.98
1409.56	557.518
1409.83	533.97
1410.1	498.097
1410.37	468.35
1410.63	456.977
1410.9	456.852
1411.17	440.311
1411.44	444.309
1411.71	442.183
1411.98	440.077
1412.25	435.964
1412.51	419.632
1412.78	425.902
1413.05	423.092
1413.32	438.998
1413.59	419.745
1413.86	420.451
1414.12	413.748
1414.39	413.84
1414.66	426.431
1414.93	431.763
1415.2	425.576
1415.47	404.032
1415.73	436.888
1416	418.421
1416.27	410.242
1416.54	398.984
1416.81	421.618
1417.07	416.527
1417.34	414.523
1417.61	420.737
1417.88	440.305
1418.15	426.973
1418.42	426.983
1418.68	438.305
1418.95	409.552
1419.22	417.78
1419.49	413.678
1419.76	417.746
1420.02	400.203
1420.29	411.423
1420.56	426.754
1420.83	418.453
1421.1	422.471
1421.36	421.368
1421.63	412.094
1421.9	410.066
1422.17	407.095
1422.44	412.368
1422.7	435.11
1422.97	428.149
1423.24	423.371
1423.51	426.834
1423.77	426.859
1424.04	416.744
1424.31	429.163
1424.58	424.655
1424.85	413.389
1425.11	438.104
1425.38	413.795
1425.65	409.746
1425.92	421.996
1426.19	409.832
1426.45	419.036
1426.72	419.988
1426.99	436.288
1427.26	406.441
1427.52	426.821
1427.79	398.989
1428.06	430.606
1428.33	420.299
1428.59	411.058
1428.86	427.448
1429.13	393.683
1429.4	414.198
1429.67	431.658
1429.93	413.288
1430.2	415.426
1430.47	408.364
1430.74	406.401
1431	397.297
1431.27	410.808
1431.54	407.871
1431.81	423.338
1432.07	412.051
1432.34	415.055
1432.61	415.985
1432.87	402.588
1433.14	417.85
1433.41	410.519
1433.68	409.323
1433.95	410.187
1434.21	394.727
1434.48	410.048
1434.75	423.557
1435.01	405.203
1435.28	386.775
1435.55	410.348
1435.82	419.562
1436.08	408.272
1436.35	427.716
1436.62	411.295
1436.89	395.891
1437.15	421.463
1437.42	419.38
1437.69	407.078
1437.95	407.034
1438.22	413.159
1438.49	407.036
1438.76	411.197
1439.02	422.505
1439.29	410.225
1439.56	416.396
1439.82	401.091
1440.09	437.056
1440.36	402.321
1440.63	407.499
1440.89	399.322
1441.16	414.711
1441.43	403.455
1441.69	402.4
1441.96	416.689
1442.23	394.099
1442.49	413.664
1442.76	421.879
1443.03	391.195
1443.3	418.836
1443.56	423.892
1443.83	407.43
1444.1	429.943
1444.36	409.426
1444.63	403.302
1444.9	416.749
1445.16	414.8
1445.43	399.543
1445.7	411.822
1445.97	403.578
1446.23	414.828
1446.5	408.64
1446.77	407.585
1447.03	396.273
1447.3	415.728
1447.57	414.661
1447.83	409.484
1448.1	416.62
1448.37	413.543
1448.63	420.793
1448.9	426.017
1449.17	406.556
1449.43	404.5
1449.7	386.006
1449.97	402.365
1450.23	400.249
1450.5	421.713
1450.77	415.528
1451.03	396.021
1451.3	401.115
1451.57	414.405
1451.83	394.895
1452.1	402.029
1452.37	416.343
1452.63	408.13
1452.9	409.161
1453.17	414.305
1453.43	412.303
1453.7	420.542
1453.97	410.298
1454.23	400.023
1454.5	405.125
1454.77	421.521
1455.03	413.325
1455.3	404.092
1455.56	402.016
1455.83	408.174
1456.1	409.27
1456.36	412.384
1456.63	406.234
1456.9	409.275
1457.16	424.578
1457.43	414.265
1457.7	408.088
1457.96	409.087
1458.23	422.388
1458.49	400.879
1458.76	406.011
1459.03	408.084
1459.29	409.128
1459.56	417.34
1459.82	413.251
1460.09	423.482
1460.36	413.21
1460.62	406.01
1460.89	410.074
1461.16	421.298
1461.42	422.268
1461.69	393.543
1461.95	402.701
1462.22	392.398
1462.49	405.632
1462.75	404.528
1463.02	405.464
1463.28	408.44
1463.55	414.479
1463.82	414.393
1464.08	404.155
1464.35	405.303
1464.61	403.444
1464.88	411.776
1465.15	407.872
1465.41	399.376
1465.68	399.676
1465.94	403.434
1466.21	410.538
1466.48	403.519
1466.74	397.357
1467.01	416.569
1467.27	400.191
1467.54	414.513
1467.8	407.346
1468.07	402.216
1468.34	417.5
1468.6	402.192
1468.87	425.644
1469.13	403.18
1469.4	406.2
1469.67	419.407
1469.93	419.328
1470.2	406.997
1470.46	407.94
1470.73	412.979
1470.99	418.026
1471.26	403.732
1471.53	403.677
1471.79	420.912
1472.06	409.653
1472.32	408.605
1472.59	420.809
1472.85	407.56
1473.12	391.257
1473.39	397.336
1473.65	412.548
1473.92	407.398
1474.18	405.313
1474.45	400.196
1474.71	410.371
1474.98	411.425
1475.24	408.399
1475.51	407.386
1475.78	405.338
1476.04	415.478
1476.31	412.37
1476.57	404.19
1476.84	422.468
1477.1	407.142
1477.37	407.075
1477.63	415.177
1477.9	407.027
1478.16	405.999
1478.43	421.205
1478.69	415.023
1478.96	405.814
1479.22	408.803
1479.49	405.685
1479.76	391.385
1480.02	415.679
1480.29	401.374
1480.55	405.292
1480.82	414.31
1481.08	405.096
1481.35	410.132
1481.61	423.25
1481.88	396.91
1482.14	414.223
1482.41	407.193
1482.67	423.518
1482.94	397.186
1483.2	423.582
1483.47	410.433
1483.73	403.351
1484	396.244
1484.26	415.523
1484.53	412.311
1484.79	427.3
1485.06	417.726
1485.32	400.972
1485.59	404.825
1485.85	400.471
1486.12	401.392
1486.38	411.638
1486.65	415.848
1486.91	408.321
1487.18	395.356
1487.44	402.509
1487.71	410.495
1487.97	421.543
1488.24	415.407
1488.5	416.352
1488.77	405.125
1489.03	408.063
1489.3	424.178
1489.56	401.871
1489.83	410.942
1490.09	401.808
1490.36	403.828
1490.62	409.892
1490.89	405.796
1491.15	399.647
1491.42	417.768
1491.68	409.64
1491.95	400.522
1492.21	412.652
1492.48	394.471
1492.74	417.711
1493	410.611
1493.27	420.706
1493.53	399.476
1493.8	413.599
1494.06	408.529
1494.33	414.598
1494.59	398.451
1494.86	421.736
1495.12	410.599
1495.39	419.63
1495.65	423.549
1495.92	406.224
1496.18	416.206
1496.45	418.149
1496.71	411.025
1496.97	416.021
1497.24	425.047
1497.5	416.969
1497.77	405.862
1498.03	405.838
1498.3	407.847
1498.56	420.969
1498.82	416.941
1499.09	410.899
1499.35	408.897
1499.62	410.942
1499.88	414.006
1500.15	417.069
1500.41	404.968
1500.68	413.041
1500.94	425.141
1501.2	416.042
1501.47	413.978
1501.73	419.953
1502	407.816
1502.26	403.767
1502.52	410.814
1502.79	409.766
1503.05	408.67
1503.32	420.692
1503.58	414.591
1503.85	421.575
1504.11	419.556
1504.37	419.595
1504.64	428.689
1504.9	411.548
1505.17	398.419
1505.43	421.569
1505.7	424.528
1505.96	406.267
1506.22	422.244
1506.49	416.169
1506.75	406.082
1507.02	423.225
1507.28	418.247
1507.54	418.263
1507.81	423.319
1508.07	429.361
1508.34	415.225
1508.6	387.997
1508.86	410.171
1509.13	418.246
1509.39	416.237
1509.66	404.138
1509.92	414.212
1510.18	404.18
1510.45	428.393
1510.71	422.265
1510.98	420.168
1511.24	407.984
1511.5	417.94
1511.77	404.687
1512.03	429.625
1512.29	421.358
1512.56	412.106
1512.82	404.9
1513.08	404.795
1513.35	390.645
1513.61	419.682
1513.88	409.61
1514.14	418.741
1514.4	414.883
1514.67	415.927
1514.93	425.924
1515.2	419.802
1515.46	420.693
1515.72	408.542
1515.99	413.435
1516.25	418.327
1516.51	419.242
1516.78	421.206
1517.04	416.158
1517.3	409.111
1517.57	417.121
1517.83	415.122
1518.09	403.119
1518.36	406.199
1518.62	419.259
1518.88	410.261
1519.15	416.303
1519.41	421.355
1519.67	427.406
1519.94	406.358
1520.2	402.335
1520.47	421.358
1520.73	415.309
1520.99	421.352
1521.26	422.396
1521.52	405.376
1521.78	408.4
1522.05	430.457
1522.31	415.369
1522.57	421.341
1522.84	418.281
1523.1	422.249
1523.36	401.12
1523.62	412.028
1523.89	415.873
1524.15	417.766
1524.41	400.65
1524.68	398.577
1524.94	414.534
1525.2	420.589
1525.47	416.603
1525.73	412.611
1525.99	417.679
1526.26	415.752
1526.52	418.868
1526.78	411.937
1527.05	417.983
1527.31	407.949
1527.57	400.875
1527.84	420.892
1528.1	425.867
1528.36	428.838
1528.63	399.731
1528.89	413.713
1529.15	420.687
1529.41	425.674
1529.68	385.6
1529.94	421.63
1530.2	419.56
1530.47	417.538
1530.73	423.584
