#Acq. time (s)=	30
#Accumulations=	2
#Range (cm-¹)=	1200...2365
#Windows=	3
#Auto scanning=	Off
#Autofocus=	Off
#Macrospot=	Off
#AutoExposure=	Off
#Spike filter=	Multiple accum.
#Delay time (s)=	2
#Binning=	1
#Readout mode=	Signal
#DeNoise=	Off
#ICS correction=	On
#Dark correction=	Off
#Inst. Process=	Off
#Detector Gain=	Best Dynamic
#Detector ADC=	50 kHz HS
#Detector temperature (°C)=	-60.09
#Instrument=	LabRAM HR Evol
#Detector=	SIN-EM FIVIS
#Objective=	x100_VIS_LWD
#Grating=	1800 (450-850nm)
#ND Filter=	100%
#Laser=	532nm_Edge
#Hole=	100.021
#Temperature=	0
#Range=	Visible
#StageXY=	75x50mm Scan+
#StageZ=	Z motor
#X (µm)=	0
#Y (µm)=	0
#Z (µm)=	-51.2
#Full time(mm:ss)=	3:17
#Project=	21_11_26
#Sample=	BU19(2)w
#Site=	
#Title=	BU19(2)w-A-FF2-FI05-V_1800 (450-850nm)_532nm_Edge_100%_x100_VIS_LWD_H100um_30sX2
#Remark=	
#Date=	26.11.2021 15:09
#Acquired=	26.11.2021 15:09:56
1202.72	210.244
1203	215.931
1203.28	211.691
1203.56	204.025
1203.84	200.639
1204.11	215.594
1204.39	203.683
1204.67	200.465
1204.95	196.186
1205.23	196.145
1205.5	204.664
1205.78	199.206
1206.06	214.141
1206.34	214.035
1206.61	197.844
1206.89	206.325
1207.17	198.724
1207.45	207.213
1207.73	202.874
1208	221.022
1208.28	208.139
1208.56	211.304
1208.84	203.749
1209.11	202.621
1209.39	201.497
1209.67	211.092
1209.95	197.182
1210.23	203.576
1210.5	193.912
1210.78	209.855
1211.06	211.904
1211.34	206.495
1211.61	204.28
1211.89	189.28
1212.17	203.065
1212.45	205.116
1212.72	193.334
1213	187.948
1213.28	207.061
1213.56	200.628
1213.83	199.535
1214.11	201.619
1214.39	203.755
1214.67	197.372
1214.94	220.794
1215.22	196.302
1215.5	182.452
1215.78	179.246
1216.05	214.357
1216.33	210.042
1216.61	201.454
1216.89	201.364
1217.16	214.036
1217.44	206.53
1217.72	201.156
1218	207.467
1218.27	193.613
1218.55	202.059
1218.83	194.585
1219.1	208.355
1219.38	209.398
1219.66	210.437
1219.94	201.921
1220.21	202.943
1220.49	202.934
1220.77	205.053
1221.04	195.493
1221.32	202.894
1221.6	207.096
1221.88	179.494
1222.15	203.814
1222.43	196.316
1222.71	208.93
1222.98	196.123
1223.26	197.084
1223.54	211.795
1223.81	200.078
1224.09	195.779
1224.37	192.538
1224.65	211.495
1224.92	205.117
1225.2	198.753
1225.48	200.856
1225.76	205.101
1226.03	194.561
1226.31	210.423
1226.59	193.514
1226.86	206.167
1227.14	202.958
1227.42	209.253
1227.69	200.703
1227.97	201.562
1228.25	209.863
1228.52	209.74
1228.8	200.073
1229.08	207.273
1229.35	209.355
1229.63	204.604
1229.91	209.259
1230.18	200.622
1230.46	209.912
1230.74	221.42
1231.01	218.281
1231.29	202.359
1231.57	206.161
1231.84	199.891
1232.12	206.189
1232.4	205.128
1232.67	199.848
1232.95	205.093
1233.23	199.826
1233.5	202.955
1233.78	213.451
1234.06	204.006
1234.33	207.173
1234.61	199.836
1234.89	204.066
1235.16	189.383
1235.44	199.906
1235.71	202.024
1235.99	198.892
1236.27	211.523
1236.54	207.311
1236.82	210.436
1237.1	209.349
1237.37	208.249
1237.65	205.025
1237.93	218.6
1238.2	211.171
1238.48	195.351
1238.76	211.013
1239.03	206.757
1239.31	206.718
1239.58	205.638
1239.86	225.532
1240.14	216.08
1240.41	203.492
1240.69	204.536
1240.97	200.346
1241.24	207.692
1241.52	197.213
1241.79	204.53
1242.07	221.259
1242.35	212.847
1242.62	215.992
1242.9	216.003
1243.18	202.405
1243.45	209.767
1243.73	207.664
1244	218.146
1244.28	205.578
1244.56	207.669
1244.83	223.377
1245.11	209.726
1245.39	215.965
1245.66	211.717
1245.94	220.019
1246.21	208.427
1246.49	192.692
1246.76	214.655
1247.04	211.513
1247.32	209.413
1247.59	219.859
1247.87	226.131
1248.14	207.267
1248.42	215.556
1248.7	217.603
1248.97	215.498
1249.25	209.233
1249.52	212.383
1249.8	229.101
1250.08	222.815
1250.35	222.815
1250.63	222.765
1250.9	204.933
1251.18	209.065
1251.45	219.471
1251.73	221.519
1252.01	214.165
1252.28	215.168
1252.56	211.993
1252.83	230.743
1253.11	215.034
1253.39	219.165
1253.66	212.879
1253.94	223.312
1254.21	223.345
1254.49	225.473
1254.76	218.21
1255.04	222.403
1255.31	225.532
1255.59	227.636
1255.87	207.792
1256.14	213
1256.42	233.892
1256.69	230.775
1256.97	234.984
1257.24	238.126
1257.52	239.155
1257.79	234.941
1258.07	247.448
1258.35	239.073
1258.62	243.227
1258.9	242.153
1259.17	250.442
1259.45	234.778
1259.72	236.89
1260	246.318
1260.27	229.707
1260.55	243.218
1260.82	262.99
1261.1	258.719
1261.37	254.48
1261.65	273.211
1261.92	288.895
1262.2	282.885
1262.48	301.026
1262.75	322.137
1263.02	328.918
1263.3	342.081
1263.58	325.237
1263.85	350.604
1264.13	322.666
1264.4	322.968
1264.68	284.423
1264.95	284.241
1265.23	285.214
1265.5	262.217
1265.78	256.966
1266.05	255.872
1266.33	241.24
1266.6	242.299
1266.88	242.329
1267.15	241.327
1267.43	245.562
1267.7	241.442
1267.98	249.879
1268.25	248.912
1268.53	238.55
1268.8	229.209
1269.08	254.391
1269.35	246.049
1269.63	235.599
1269.9	245.012
1270.18	246.002
1270.45	238.594
1270.73	241.681
1271	237.433
1271.28	246.809
1271.55	255.161
1271.83	243.615
1272.1	255.141
1272.38	242.638
1272.65	233.281
1272.93	246.983
1273.2	252.283
1273.47	245.012
1273.75	257.653
1274.03	251.427
1274.3	252.54
1274.57	258.873
1274.85	248.393
1275.12	263.065
1275.4	255.721
1275.67	248.403
1275.95	243.195
1276.22	247.433
1276.5	246.44
1276.77	265.38
1277.05	267.529
1277.32	254.961
1277.6	262.375
1277.87	247.726
1278.14	273.006
1278.42	278.314
1278.69	286.774
1278.97	290.009
1279.24	287.95
1279.52	292.203
1279.79	306.911
1280.07	330.025
1280.34	351.018
1280.61	378.346
1280.89	408.875
1281.16	467.817
1281.44	601.555
1281.71	682.781
1281.99	880.766
1282.26	1123.9
1282.53	1397.7
1282.81	1678.96
1283.08	2059.74
1283.36	2270.21
1283.63	2269.27
1283.91	2072.99
1284.18	1611.63
1284.45	1239.25
1284.73	917.325
1285	659.324
1285.28	522.328
1285.55	448.347
1285.83	382.915
1286.1	355.546
1286.37	324.028
1286.65	325.076
1286.92	302.902
1287.2	296.578
1287.47	291.293
1287.75	278.616
1288.02	271.197
1288.29	271.166
1288.57	269.056
1288.84	248.013
1289.12	251.186
1289.39	261.747
1289.66	259.686
1289.94	257.626
1290.21	243.985
1290.49	244.025
1290.76	240.861
1291.03	246.099
1291.31	236.604
1291.58	226.066
1291.86	240.806
1292.13	251.326
1292.4	254.486
1292.68	253.446
1292.95	231.312
1293.22	248.142
1293.5	244.992
1293.77	225.053
1294.05	240.953
1294.32	225.237
1294.59	245.297
1294.87	244.241
1295.14	241.058
1295.42	237.936
1295.69	236.979
1295.96	229.716
1296.24	238.33
1296.51	231.029
1296.79	233.165
1297.06	220.485
1297.33	235.255
1297.61	240.496
1297.88	236.218
1298.15	224.543
1298.43	242.434
1298.7	231.899
1298.97	225.542
1299.25	230.781
1299.52	223.357
1299.79	232.819
1300.07	235.981
1300.34	223.351
1300.62	239.21
1300.89	228.655
1301.16	213.861
1301.44	237.078
1301.71	240.255
1301.98	213.893
1302.25	230.823
1302.53	242.46
1302.8	240.352
1303.08	219.22
1303.35	231.879
1303.62	221.29
1303.9	231.807
1304.17	225.461
1304.44	229.688
1304.72	228.63
1304.99	213.842
1305.26	228.594
1305.54	214.829
1305.81	213.722
1306.08	226.334
1306.35	215.727
1306.63	216.737
1306.9	220.934
1307.18	221.985
1307.45	210.401
1307.72	229.39
1308	225.166
1308.27	227.271
1308.54	217.788
1308.81	218.828
1309.09	208.29
1309.36	217.815
1309.63	217.843
1309.91	217.873
1310.18	225.278
1310.45	214.717
1310.73	218.922
1311	222.085
1311.27	219.982
1311.55	226.324
1311.82	217.889
1312.09	212.627
1312.37	221.107
1312.64	211.634
1312.91	238.045
1313.18	227.473
1313.46	220.045
1313.73	221.091
1314	217.901
1314.28	213.661
1314.55	211.547
1314.82	221.058
1315.09	217.911
1315.37	226.382
1315.64	214.792
1315.91	212.705
1316.18	214.843
1316.46	223.282
1316.73	222.209
1317	232.758
1317.28	221.133
1317.55	206.345
1317.82	222.216
1318.09	218.01
1318.37	222.247
1318.64	216.972
1318.91	206.41
1319.18	220.142
1319.46	207.456
1319.73	203.22
1320	215.887
1320.28	210.617
1320.55	215.899
1320.82	208.49
1321.09	207.402
1321.37	216.857
1321.64	203.069
1321.91	211.445
1322.18	221.957
1322.46	215.562
1322.73	214.476
1323	223.935
1323.27	216.518
1323.55	212.257
1323.82	210.17
1324.09	219.667
1324.36	203.851
1324.64	210.169
1324.91	204.898
1325.18	211.216
1325.45	211.227
1325.73	211.171
1326	213.181
1326.27	216.215
1326.54	209.744
1326.81	223.358
1327.09	217.026
1327.36	221.306
1327.63	211.972
1327.9	199.403
1328.18	222.655
1328.45	223.793
1328.72	207.004
1328.99	204.958
1329.27	212.36
1329.54	219.716
1329.81	218.682
1330.08	213.395
1330.35	221.815
1330.63	221.784
1330.9	198.539
1331.17	219.577
1331.44	216.346
1331.71	220.474
1331.99	216.163
1332.26	211.874
1332.53	210.76
1332.8	212.798
1333.07	202.204
1333.35	210.541
1333.62	206.265
1333.89	226.166
1334.16	215.593
1334.43	216.581
1334.71	214.421
1334.98	215.416
1335.25	206.972
1335.52	220.571
1335.79	217.379
1336.07	215.241
1336.34	228.836
1336.61	229.848
1336.88	221.427
1337.15	209.867
1337.43	221.375
1337.7	212.968
1337.97	210.846
1338.24	216.031
1338.51	210.74
1338.78	210.707
1339.06	204.386
1339.33	220.068
1339.6	236.812
1339.87	217.971
1340.14	231.594
1340.42	223.218
1340.69	222.177
1340.96	212.757
1341.23	217.986
1341.5	201.218
1341.77	229.474
1342.04	220.023
1342.32	216.845
1342.59	220.982
1342.86	227.199
1343.13	216.676
1343.4	228.149
1343.67	220.808
1343.95	221.844
1344.22	215.564
1344.49	214.52
1344.76	208.242
1345.03	221.816
1345.3	233.278
1345.58	222.77
1345.85	209.111
1346.12	219.503
1346.39	210.026
1346.66	215.139
1346.93	209.849
1347.2	235.865
1347.47	223.274
1347.75	216.953
1348.02	206.486
1348.29	218.965
1348.56	219.986
1348.83	207.461
1349.1	216.804
1349.37	223.012
1349.65	220.882
1349.92	205.218
1350.19	207.261
1350.46	222.837
1350.73	215.508
1351	221.696
1351.27	219.556
1351.54	218.478
1351.81	230.898
1352.09	220.479
1352.36	226.712
1352.63	226.736
1352.9	225.742
1353.17	204.999
1353.44	216.476
1353.71	223.949
1353.98	224.155
1354.25	238.523
1354.53	212.163
1354.8	227.526
1355.07	221.315
1355.34	234.839
1355.61	213.979
1355.88	213.937
1356.15	220.241
1356.42	210.905
1356.69	217.09
1356.96	226.414
1357.24	221.199
1357.51	222.213
1357.78	224.258
1358.05	240.832
1358.32	211.723
1358.59	226.212
1358.86	214.756
1359.13	242.722
1359.4	222.964
1359.67	223.967
1359.94	232.231
1360.22	216.618
1360.49	218.624
1360.76	225.813
1361.03	226.804
1361.3	223.675
1361.57	214.347
1361.84	221.587
1362.11	229.857
1362.38	218.435
1362.65	237.049
1362.92	235.988
1363.19	226.658
1363.46	219.422
1363.73	215.315
1364	238.126
1364.28	242.297
1364.55	244.363
1364.82	236.058
1365.09	242.244
1365.36	241.163
1365.63	238.001
1365.9	246.222
1366.17	235.815
1366.44	227.483
1366.71	230.53
1366.98	254.244
1367.25	240.715
1367.52	228.273
1367.79	240.649
1368.06	237.577
1368.33	255.165
1368.6	279.988
1368.87	307.914
1369.15	329.641
1369.41	316.225
1369.68	279.02
1369.95	268.645
1370.23	241.735
1370.5	239.637
1370.77	249.906
1371.04	247.804
1371.31	239.492
1371.58	244.586
1371.85	244.502
1372.12	259.883
1372.39	245.338
1372.66	247.313
1372.93	236.934
1373.2	246.169
1373.47	245.103
1373.74	244.039
1374.01	237.829
1374.28	253.262
1374.55	246.029
1374.82	237.768
1375.09	259.381
1375.36	253.165
1375.63	255.233
1375.9	252.172
1376.17	232.59
1376.44	256.296
1376.71	252.108
1376.98	267.49
1377.25	282.84
1377.52	270.372
1377.79	276.578
1378.06	264.294
1378.33	274.695
1378.6	274.828
1378.87	271.885
1379.14	281.207
1379.41	284.288
1379.68	283.217
1379.95	286.266
1380.22	292.387
1380.49	302.56
1380.76	292.021
1381.03	314.516
1381.3	294.857
1381.57	305.189
1381.84	315.39
1382.11	319.352
1382.38	330.491
1382.65	321.108
1382.92	332.281
1383.19	346.517
1383.46	356.675
1383.73	374.003
1384	389.314
1384.27	429.24
1384.54	471.288
1384.81	503.112
1385.08	588.32
1385.34	744.403
1385.61	924.278
1385.88	1217.07
1386.15	1758.41
1386.42	2561.64
1386.69	3689.87
1386.96	4664.99
1387.23	4752.23
1387.5	3906.88
1387.77	2536.97
1388.04	1648.11
1388.31	1089.12
1388.58	773.192
1388.85	613.492
1389.12	520.865
1389.39	463.694
1389.66	412.389
1389.93	361.091
1390.2	353.781
1390.46	329.91
1390.73	319.533
1391	318.494
1391.27	314.262
1391.54	296.81
1391.81	287.558
1392.08	285.441
1392.35	288.437
1392.62	275.058
1392.89	285.248
1393.16	258.589
1393.43	283.124
1393.7	271.834
1393.97	257.479
1394.23	256.432
1394.5	263.575
1394.77	264.579
1395.04	237.964
1395.31	269.709
1395.58	264.635
1395.85	260.57
1396.12	253.415
1396.39	266.711
1396.66	260.546
1396.93	249.255
1397.2	262.523
1397.46	254.287
1397.73	239.917
1398	240.914
1398.27	255.229
1398.54	242.969
1398.81	247.088
1399.08	255.288
1399.35	231.767
1399.62	244.084
1399.89	250.249
1400.16	257.436
1400.42	235.937
1400.69	246.205
1400.96	254.456
1401.23	244.244
1401.5	246.281
1401.77	251.429
1402.04	255.522
1402.31	256.631
1402.58	245.499
1402.84	239.493
1403.11	238.571
1403.38	254.042
1403.65	225.334
1403.92	265.373
1404.19	242.735
1404.46	246.699
1404.73	250.838
1404.99	262.099
1405.26	264.117
1405.53	257.915
1405.8	266.069
1406.07	307.031
1406.34	287.502
1406.61	311.045
1406.87	308.969
1407.14	323.331
1407.41	340.779
1407.68	360.284
1407.95	408.49
1408.22	435.17
1408.49	428.016
1408.76	448.548
1409.02	416.79
1409.29	376.829
1409.56	351.217
1409.83	332.78
1410.1	290.738
1410.37	276.376
1410.63	253.756
1410.9	254.709
1411.17	242.328
1411.44	238.17
1411.71	236.078
1411.98	238.094
1412.25	242.182
1412.51	243.239
1412.78	239.207
1413.05	217.819
1413.32	234.507
1413.59	222.32
1413.86	221.12
1414.12	219.801
1414.39	239.333
1414.66	217.942
1414.93	222.148
1415.2	211.866
1415.47	236.512
1415.73	222.138
1416	218.036
1416.27	229.347
1416.54	218.07
1416.81	213.982
1417.07	214.003
1417.34	221.217
1417.61	217.133
1417.88	223.319
1418.15	211
1418.42	214.085
1418.68	225.396
1418.95	217.184
1419.22	222.324
1419.49	214.105
1419.76	213.053
1420.02	226.367
1420.29	215.021
1420.56	212.925
1420.83	204.665
1421.1	221.045
1421.36	219.976
1421.63	209.691
1421.9	230.23
1422.17	207.702
1422.44	208.798
1422.7	218.114
1422.97	210.006
1423.24	217.387
1423.51	227.876
1423.77	212.952
1424.04	190.974
1424.31	228.967
1424.58	223.621
1424.85	201.082
1425.11	219.585
1425.38	216.66
1425.65	222.84
1425.92	210.501
1426.19	209.546
1426.45	207.478
1426.72	213.593
1426.99	206.358
1427.26	207.325
1427.52	194.965
1427.79	203.078
1428.06	205.058
1428.33	193.76
1428.59	212.175
1428.86	220.368
1429.13	207.068
1429.4	195.819
1429.67	194.816
1429.93	196.893
1430.2	208.204
1430.47	196.985
1430.74	210.352
1431	205.288
1431.27	204.351
1431.54	199.289
1431.81	211.638
1432.07	204.453
1432.34	215.702
1432.61	205.389
1432.87	206.382
1433.14	204.267
1433.41	209.314
1433.68	183.606
1433.95	204.017
1434.21	190.653
1434.48	202.919
1434.75	193.792
1435.01	210.226
1435.28	205.11
1435.55	216.382
1435.82	201.005
1436.08	207.141
1436.35	207.127
1436.62	203.013
1436.89	189.674
1437.15	205.02
1437.42	194.757
1437.69	204.993
1437.95	202.92
1438.22	208.029
1438.49	200.869
1438.76	202.947
1439.02	199.89
1439.29	197.846
1439.56	209.125
1439.82	197.885
1440.09	191.779
1440.36	200.033
1440.63	195.955
1440.89	200.067
1441.16	189.814
1441.43	195.977
1441.69	193.909
1441.96	192.85
1442.23	207.184
1442.49	202.098
1442.76	187.745
1443.03	199.064
1443.3	199.037
1443.56	203.102
1443.83	193.844
1444.1	206.125
1444.36	188.689
1444.63	202.026
1444.9	188.752
1445.16	204.182
1445.43	196.038
1445.7	192.942
1445.97	211.388
1446.23	189.826
1446.5	200.066
1446.77	189.792
1447.03	194.904
1447.3	188.733
1447.57	205.119
1447.83	197.914
1448.1	195.842
1448.37	200.965
1448.63	206.125
1448.9	197.966
1449.17	192.848
1449.43	208.228
1449.7	187.697
1449.97	191.773
1450.23	193.79
1450.5	197.857
1450.77	211.164
1451.03	192.696
1451.3	194.729
1451.57	213.157
1451.83	200.837
1452.1	202.865
1452.37	189.528
1452.63	189.518
1452.9	204.887
1453.17	199.772
1453.43	203.892
1453.7	186.488
1453.97	199.811
1454.23	186.473
1454.5	191.584
1454.77	192.607
1455.03	194.655
1455.3	199.771
1455.56	197.707
1455.83	210.005
1456.1	180.319
1456.36	175.21
1456.63	189.557
1456.9	184.415
1457.16	192.579
1457.43	193.571
1457.7	189.456
1457.96	198.662
1458.23	181.237
1458.49	185.334
1458.76	191.483
1459.03	197.639
1459.29	189.45
1459.56	202.774
1459.82	195.605
1460.09	201.743
1460.36	184.311
1460.62	188.394
1460.89	197.595
1461.16	185.281
1461.42	197.544
1461.69	192.397
1461.95	194.414
1462.22	185.167
1462.49	184.107
1462.75	193.277
1463.02	180.956
1463.28	194.209
1463.55	183.934
1463.82	182.871
1464.08	186.952
1464.35	185.986
1464.61	184.024
1464.88	188.182
1465.15	182.125
1465.41	193.238
1465.68	197.99
1465.94	186.599
1466.21	185.558
1466.48	198.884
1466.74	182.532
1467.01	189.591
1467.27	192.623
1467.54	194.681
1467.8	186.505
1468.07	186.489
1468.34	185.458
1468.6	194.633
1468.87	194.627
1469.13	196.653
1469.4	189.492
1469.67	200.684
1469.93	189.428
1470.2	195.497
1470.46	186.285
1470.73	191.353
1470.99	191.328
1471.26	187.236
1471.53	187.208
1471.79	185.132
1472.06	190.196
1472.32	201.381
1472.59	195.262
1472.85	183.035
1473.12	196.264
1473.39	188.102
1473.65	184
1473.92	189.06
1474.18	185.981
1474.45	180.877
1474.71	187.998
1474.98	193.101
1475.24	181.916
1475.51	171.738
1475.78	195.14
1476.04	186.978
1476.31	185.933
1476.57	207.279
1476.84	191.998
1477.1	180.775
1477.37	187.862
1477.63	198.014
1477.9	190.886
1478.16	183.76
1478.43	194.922
1478.69	180.648
1478.96	179.603
1479.22	197.868
1479.49	180.557
1479.76	192.712
1480.02	200.794
1480.29	186.531
1480.55	182.401
1480.82	192.495
1481.08	182.307
1481.35	194.463
1481.61	177.182
1481.88	185.312
1482.14	178.237
1482.41	189.431
1482.67	188.453
1482.94	193.557
1483.2	190.508
1483.47	189.513
1483.73	179.369
1484	179.367
1484.26	195.606
1484.53	187.404
1484.79	191.354
1485.06	179.999
1485.32	182.788
1485.59	187.754
1485.85	188.617
1486.12	193.106
1486.38	196.199
1486.65	199.313
1486.91	206.188
1487.18	199.198
1487.44	173.891
1487.71	189.034
1487.97	184.936
1488.24	191.997
1488.5	176.774
1488.77	185.844
1489.03	175.675
1489.3	166.532
1489.56	187.759
1489.83	179.647
1490.09	193.795
1490.36	187.721
1490.62	197.833
1490.89	178.587
1491.15	178.549
1491.42	196.711
1491.68	204.778
1491.95	177.47
1492.21	185.555
1492.48	181.516
1492.74	188.585
1493	186.55
1493.27	194.629
1493.53	186.539
1493.8	193.599
1494.06	181.459
1494.33	190.557
1494.59	194.61
1494.86	208.778
1495.12	185.516
1495.39	184.472
1495.65	192.499
1495.92	196.468
1496.18	180.251
1496.45	188.292
1496.71	190.283
1496.97	192.276
1497.24	197.293
1497.5	201.326
1497.77	188.201
1498.03	193.234
1498.3	179.098
1498.56	184.143
1498.82	177.08
1499.09	184.148
1499.35	195.256
1499.62	191.229
1499.88	191.244
1500.15	196.305
1500.41	189.243
1500.68	209.43
1500.94	181.153
1501.2	189.221
1501.47	197.274
1501.73	185.122
1502	178.044
1502.26	196.2
1502.52	190.136
1502.79	204.241
1503.05	193.098
1503.32	200.117
1503.58	184.964
1503.85	185.936
1504.11	182.908
1504.37	177.881
1504.64	181.92
1504.9	190.995
1505.17	189.976
1505.43	179.87
1505.7	188.913
1505.96	205.991
1506.22	185.765
1506.49	183.734
1506.75	180.704
1507.02	186.754
1507.28	194.839
1507.54	183.76
1507.81	187.797
1508.07	196.862
1508.34	204.907
1508.6	190.787
1508.86	180.712
1509.13	184.747
1509.39	187.77
1509.66	176.681
1509.92	191.792
1510.18	188.788
1510.45	187.79
1510.71	196.82
1510.98	182.675
1511.24	194.716
1511.5	194.659
1511.77	189.545
1512.03	195.478
1512.29	186.323
1512.56	195.273
1512.82	199.206
1513.08	194.13
1513.35	200.107
1513.61	192.035
1513.88	189.005
1514.14	192.059
1514.4	197.154
1514.67	180.093
1514.93	190.114
1515.2	200.11
1515.46	194.03
1515.72	204.015
1515.99	183.882
1516.25	199.874
1516.51	190.803
1516.78	177.745
1517.04	179.734
1517.3	180.722
1517.57	188.735
1517.83	176.705
1518.09	176.715
1518.36	189.782
1518.62	186.781
1518.88	187.795
1519.15	184.795
1519.41	182.802
1519.67	187.831
1519.94	186.834
1520.2	174.788
1520.47	195.836
1520.73	197.826
1520.99	185.797
1521.26	193.84
1521.52	199.875
1521.78	201.886
1522.05	184.818
1522.31	196.838
1522.57	189.792
1522.84	208.824
1523.1	199.773
1523.36	203.749
1523.62	194.662
1523.89	191.576
1524.15	190.52
1524.41	185.469
1524.68	198.453
1524.94	178.392
1525.2	201.443
1525.47	188.431
1525.73	188.436
1525.99	189.463
1526.26	201.518
1526.52	199.565
1526.78	198.602
1527.05	194.606
1527.31	192.594
1527.57	190.559
1527.84	203.573
1528.1	202.551
1528.36	183.493
1528.63	202.505
1528.89	185.45
1529.15	193.444
1529.41	211.461
1529.68	196.43
1529.94	196.415
1530.2	206.395
1530.47	186.356
