#Acq. time (s)=	30
#Accumulations=	2
#Range (cm-¹)=	1200...2365
#Windows=	3
#Auto scanning=	Off
#Autofocus=	Off
#Macrospot=	Off
#AutoExposure=	Off
#Spike filter=	Multiple accum.
#Delay time (s)=	2
#Binning=	1
#Readout mode=	Signal
#DeNoise=	Off
#ICS correction=	On
#Dark correction=	Off
#Inst. Process=	Off
#Detector Gain=	Best Dynamic
#Detector ADC=	50 kHz HS
#Detector temperature (°C)=	-60.09
#Instrument=	LabRAM HR Evol
#Detector=	SIN-EM FIVIS
#Objective=	x100_VIS_LWD
#Grating=	1800 (450-850nm)
#ND Filter=	100%
#Laser=	532nm_Edge
#Hole=	49.98
#Temperature=	0
#Range=	Visible
#StageXY=	75x50mm Scan+
#StageZ=	Z motor
#X (µm)=	0
#Y (µm)=	0
#Z (µm)=	58.8
#Full time(mm:ss)=	3:12
#Project=	21_11_22
#Sample=	BU19w
#Site=	
#Title=	BU19w-D-FF2-FI06-V_1800 (450-850nm)_532nm_Edge_100%_x100_VIS_LWD_H50um_30sX2
#Remark=	
#Date=	22.11.2021 13:14
#Acquired=	22.11.2021 13:14:09
1202.84	37.0405
1203.12	41.3137
1203.4	41.2929
1203.67	35.9117
1203.95	36.9652
1204.23	40.1625
1204.51	36.9375
1204.78	37.9981
1205.06	41.2013
1205.34	37.9814
1205.62	41.1791
1205.9	43.3054
1206.17	39.0156
1206.45	36.8703
1206.73	41.1437
1207.01	36.8629
1207.29	37.9236
1207.56	40.0447
1207.84	38.9591
1208.12	36.8095
1208.39	42.1311
1208.67	41.0497
1208.95	35.7001
1209.23	36.751
1209.51	37.8049
1209.78	36.7272
1210.06	42.0409
1210.34	36.7058
1210.62	39.894
1210.89	37.7553
1211.17	35.6253
1211.45	44.1426
1211.72	35.6248
1212	32.4294
1212.28	39.8793
1212.56	43.0697
1212.84	38.8078
1213.11	34.5402
1213.39	34.5272
1213.67	35.5743
1213.94	33.4323
1214.22	31.2953
1214.5	38.7217
1214.78	33.3986
1215.05	37.6366
1215.33	36.5654
1215.61	37.6172
1215.89	35.4887
1216.16	38.6685
1216.44	37.6025
1216.72	32.2927
1216.99	35.467
1217.27	40.7673
1217.55	35.4634
1217.83	30.1571
1218.1	38.6375
1218.38	34.3877
1218.66	31.2004
1218.93	32.2504
1219.21	32.2368
1219.49	35.3979
1219.77	36.4375
1220.04	34.3025
1220.32	31.1135
1220.6	36.3834
1220.88	35.3131
1221.15	34.2426
1221.43	31.0645
1221.71	34.2246
1221.98	34.2181
1222.26	37.3821
1222.54	34.2173
1222.81	38.4435
1223.09	34.2232
1223.37	28.9415
1223.64	36.3288
1223.92	35.2657
1224.2	36.3136
1224.48	39.4604
1224.75	35.2075
1225.03	34.1296
1225.31	37.2667
1225.58	37.2319
1225.86	38.252
1226.14	39.2949
1226.41	35.1653
1226.69	42.63
1226.97	36.2756
1227.24	36.2391
1227.52	38.3285
1227.8	39.3844
1228.07	40.4196
1228.35	47.6904
1228.63	46.6419
1228.9	48.7417
1229.18	46.6378
1229.46	44.529
1229.73	50.8306
1230.01	48.7257
1230.29	51.8706
1230.56	55.0186
1230.84	46.6161
1231.12	57.1249
1231.39	59.2303
1231.67	59.2372
1231.95	62.3997
1232.22	60.3012
1232.5	59.254
1232.78	61.3628
1233.05	62.4187
1233.33	58.2118
1233.61	61.3574
1233.88	60.2954
1234.16	58.1804
1234.43	56.0585
1234.71	57.0873
1234.99	59.1653
1235.26	53.8955
1235.54	57.0217
1235.82	59.1008
1236.09	51.7489
1236.37	54.8856
1236.65	49.6367
1236.92	46.4872
1237.2	51.7252
1237.47	47.5307
1237.75	47.5305
1238.03	49.6281
1238.3	41.2425
1238.58	40.1904
1238.85	40.1816
1239.13	39.1272
1239.41	42.2695
1239.68	44.3672
1239.96	48.5633
1240.24	45.425
1240.51	46.472
1240.79	43.3256
1241.06	43.3271
1241.34	43.3261
1241.62	44.3702
1241.89	42.2685
1242.17	41.211
1242.45	43.2945
1242.72	43.279
1243	41.1687
1243.27	43.2539
1243.55	44.296
1243.83	46.3876
1244.1	47.4327
1244.38	48.4743
1244.65	47.4247
1244.93	45.3263
1245.2	51.587
1245.48	46.3437
1245.76	45.2937
1246.03	48.4322
1246.31	52.6185
1246.59	53.6608
1246.86	57.8407
1247.14	49.4727
1247.41	54.6914
1247.69	48.4032
1247.96	54.6619
1248.24	56.7397
1248.51	64.042
1248.79	59.8511
1249.07	58.7945
1249.34	61.915
1249.62	65.0343
1249.89	60.8442
1250.17	65.0055
1250.45	58.7359
1250.72	71.2561
1251	58.741
1251.27	58.7506
1251.55	67.1144
1251.82	60.855
1252.1	57.7218
1252.38	59.8131
1252.65	56.6796
1252.93	59.8083
1253.2	59.8091
1253.48	61.9008
1253.75	57.7308
1254.03	60.8668
1254.3	51.4626
1254.58	53.5424
1254.86	58.7575
1255.13	59.796
1255.41	46.2164
1255.68	55.607
1255.96	43.0663
1256.23	49.3249
1256.51	49.33
1256.78	50.3763
1257.06	47.2683
1257.33	49.3426
1257.61	45.1549
1257.88	51.3977
1258.16	49.2967
1258.44	46.1576
1258.71	38.8555
1258.99	42.0195
1259.26	46.2511
1259.54	47.3473
1259.81	39.9515
1260.09	41.989
1260.36	47.1687
1260.64	39.9099
1260.91	49.34
1261.19	45.2
1261.46	49.4186
1261.74	44.1562
1262.01	44.1421
1262.29	47.2755
1262.56	47.2722
1262.84	52.4852
1263.11	57.7074
1263.39	51.4402
1263.66	58.7609
1263.94	47.2726
1264.21	51.464
1264.49	53.568
1264.76	47.3058
1265.04	45.227
1265.31	42.1046
1265.59	46.3092
1265.86	41.08
1266.14	45.2762
1266.41	44.2331
1266.69	43.183
1266.96	40.0298
1267.24	36.8751
1267.51	41.0532
1267.79	41.0422
1268.06	37.8937
1268.34	42.0752
1268.61	39.9761
1268.89	42.0693
1269.16	38.9373
1269.44	38.947
1269.71	43.1493
1269.99	41.065
1270.26	44.2181
1270.54	42.1324
1270.81	41.0939
1271.09	42.1523
1271.36	39.012
1271.64	41.111
1271.91	44.2552
1272.18	36.9115
1272.46	43.2079
1272.74	43.2135
1273.01	43.2198
1273.28	36.931
1273.56	44.2855
1273.83	39.0427
1274.11	41.1474
1274.38	46.408
1274.66	44.3168
1274.93	42.2245
1275.21	38.0273
1275.48	41.1869
1275.76	42.2494
1276.03	40.1515
1276.3	44.366
1276.58	41.2067
1276.85	39.0986
1277.13	45.4028
1277.4	42.2439
1277.68	42.2461
1277.95	43.2998
1278.23	42.2568
1278.5	41.2173
1278.77	42.2755
1279.05	46.483
1279.32	38.0642
1279.6	46.4914
1279.87	44.3782
1280.15	42.254
1280.42	49.5722
1280.69	50.5995
1280.97	55.8543
1281.24	59.0138
1281.52	62.3153
1281.79	73.9159
1282.07	90.7799
1282.34	114.959
1282.61	149.657
1282.89	192.819
1283.16	267.63
1283.44	342.413
1283.71	365.5
1283.99	313.904
1284.26	212.816
1284.53	126.465
1284.81	91.709
1285.08	74.8587
1285.36	63.2802
1285.63	49.5998
1285.9	53.8114
1286.18	47.5023
1286.45	44.3513
1286.73	40.1463
1287	45.4194
1287.28	40.1597
1287.55	36.9992
1287.82	36.9937
1288.1	34.8836
1288.37	39.0947
1288.64	36.9866
1288.92	34.8778
1289.19	32.77
1289.47	33.8242
1289.74	35.9283
1290.01	38.0299
1290.29	32.7642
1290.56	33.8259
1290.84	33.839
1291.11	34.9064
1291.38	30.6934
1291.66	33.8554
1291.93	31.7435
1292.21	31.7463
1292.48	39.1433
1292.75	31.774
1293.03	36.0202
1293.3	31.809
1293.57	32.869
1293.85	31.8117
1294.12	33.9216
1294.4	34.9712
1294.67	32.8499
1294.94	31.7849
1295.22	37.0555
1295.49	37.0565
1295.76	34.9419
1296.04	32.8231
1296.31	32.8172
1296.58	35.9776
1296.86	31.7529
1297.13	31.7567
1297.4	29.6475
1297.68	32.815
1297.95	34.9243
1298.22	30.6984
1298.5	34.9218
1298.77	27.5339
1299.04	29.6495
1299.32	37.0451
1299.59	33.8763
1299.87	32.8184
1300.14	32.8153
1300.41	29.6421
1300.69	28.5798
1300.96	30.6889
1301.23	27.5203
1301.51	29.6311
1301.78	31.7415
1302.05	30.6809
1302.33	31.7301
1302.6	29.6109
1302.87	31.7133
1303.15	28.5394
1303.42	31.6964
1303.69	27.4735
1303.97	29.581
1304.24	30.6372
1304.51	27.4729
1304.79	31.6902
1305.06	32.7431
1305.33	27.4703
1305.6	34.8501
1305.88	26.4122
1306.15	27.4702
1306.42	26.4178
1306.7	28.531
1306.97	26.4222
1307.24	26.4205
1307.52	34.8595
1307.79	31.6923
1308.06	30.6371
1308.34	31.6929
1308.61	29.5824
1308.88	28.5277
1309.15	31.6985
1309.43	31.7023
1309.7	29.5916
1309.97	27.4781
1310.25	32.751
1310.52	30.6367
1310.79	26.4106
1311.06	25.3517
1311.34	27.4613
1311.61	32.7394
1311.88	32.7413
1312.16	28.5209
1312.43	28.5232
1312.7	29.5818
1312.98	29.5845
1313.25	32.7513
1313.52	29.5795
1313.79	28.5209
1314.07	28.5188
1314.34	29.5735
1314.61	29.5761
1314.89	31.6906
1315.16	29.5788
1315.43	27.466
1315.7	27.4654
1315.98	27.4644
1316.25	32.7447
1316.52	29.5729
1316.79	27.4578
1317.07	29.5711
1317.34	28.514
1317.61	29.5678
1317.88	29.5626
1318.16	31.667
1318.43	28.4896
1318.7	26.3681
1318.97	30.5831
1319.25	31.6277
1319.52	30.5673
1319.79	26.3431
1320.06	27.3928
1320.34	27.385
1320.61	27.3872
1320.88	25.2784
1321.16	29.4957
1321.43	27.3844
1321.7	31.6017
1321.97	29.4901
1322.25	25.2738
1322.52	27.3752
1322.79	27.3616
1323.06	30.5051
1323.33	28.3753
1323.61	26.2608
1323.88	32.5685
1324.15	31.524
1324.42	29.4393
1324.7	26.2884
1324.97	26.2964
1325.24	30.5222
1325.51	29.4786
1325.79	27.3774
1326.06	29.4905
1326.33	28.4292
1326.6	23.1564
1326.87	31.5944
1327.15	27.3709
1327.42	28.421
1327.69	30.5239
1327.96	26.298
1328.23	27.3429
1328.51	28.385
1328.78	28.371
1329.05	25.2008
1329.32	26.245
1329.6	30.4447
1329.87	30.433
1330.14	30.4207
1330.41	27.2558
1330.68	29.3477
1330.96	27.2367
1331.23	32.4791
1331.5	30.3692
1331.77	27.2111
1332.04	29.303
1332.32	25.0987
1332.59	30.3382
1332.86	25.0868
1333.13	26.13
1333.4	28.2219
1333.67	27.1683
1333.95	29.2605
1334.22	28.2081
1334.49	28.2044
1334.76	27.1521
1335.03	28.1924
1335.3	25.0413
1335.58	26.0837
1335.85	28.1726
1336.12	32.3564
1336.39	23.9773
1336.66	28.1652
1336.94	26.0713
1337.21	30.2595
1337.48	29.212
1337.75	28.1646
1338.02	22.9266
1338.29	26.066
1338.57	26.0629
1338.84	31.2941
1339.11	27.1003
1339.38	28.14
1339.65	31.2705
1339.93	27.0763
1340.2	29.1627
1340.47	27.0673
1340.74	22.8816
1341.01	30.201
1341.28	31.2461
1341.55	27.0615
1341.82	29.1496
1342.1	24.9612
1342.37	29.1359
1342.64	28.0805
1342.91	25.9821
1343.18	23.8833
1343.45	25.9582
1343.73	26.9914
1344	30.1119
1344.27	30.1011
1344.54	29.0485
1344.81	31.1265
1345.08	31.121
1345.35	31.1169
1345.63	26.9446
1345.9	26.9392
1346.17	22.7656
1346.44	26.9263
1346.71	32.1272
1346.98	30.0375
1347.25	24.8255
1347.52	24.8196
1347.8	32.0968
1348.07	27.9258
1348.34	25.8392
1348.61	26.8713
1348.88	28.9471
1349.15	28.9451
1349.42	26.867
1349.69	28.9517
1349.96	25.8382
1350.24	27.9213
1350.51	28.9843
1350.78	31.1003
1351.05	28.9888
1351.32	31.0226
1351.59	24.7517
1351.86	34.1044
1352.13	26.8334
1352.41	28.9007
1352.68	27.8537
1352.95	26.8221
1353.22	27.8643
1353.49	26.8175
1353.76	28.8909
1354.03	30.9643
1354.3	29.9215
1354.57	29.9164
1354.84	26.7958
1355.11	27.8279
1355.39	28.8593
1355.66	26.7777
1355.93	28.846
1356.2	26.7643
1356.47	26.759
1356.74	27.7912
1357.01	29.8567
1357.28	24.6641
1357.55	28.8004
1357.82	27.7572
1358.09	25.6818
1358.36	27.7516
1358.63	30.8569
1358.9	28.7823
1359.18	25.6709
1359.45	28.7733
1359.72	28.7692
1359.99	24.6251
1360.26	25.6606
1360.53	29.806
1360.8	30.8446
1361.07	36.0265
1361.34	27.7385
1361.61	25.6637
1361.88	27.7312
1362.15	26.6896
1362.42	30.8236
1362.69	33.9201
1362.97	34.9458
1363.24	30.7981
1363.51	28.7208
1363.78	31.8135
1364.05	30.7675
1364.32	28.6935
1364.59	35.9234
1364.86	31.7918
1365.13	32.827
1365.4	32.8278
1365.67	33.8624
1365.94	31.7955
1366.21	33.8647
1366.48	33.8659
1366.75	36.9629
1367.02	33.8559
1367.29	28.6825
1367.56	32.8077
1367.83	35.9013
1368.1	34.8605
1368.37	40.0137
1368.64	47.2263
1368.91	48.2385
1369.18	46.1554
1369.45	36.8559
1369.72	34.7823
1369.99	33.7439
1370.26	35.7994
1370.54	36.8241
1370.81	32.697
1371.08	38.8752
1371.34	33.7195
1371.62	36.8068
1371.89	30.6216
1372.16	38.8567
1372.43	37.8265
1372.7	37.8301
1372.97	36.7978
1373.24	36.7994
1373.51	41.9389
1373.78	39.868
1374.05	47.0599
1374.32	39.8337
1374.59	42.9244
1374.86	41.9044
1375.13	46.0384
1375.4	45.0294
1375.67	44.0244
1375.94	43.0005
1376.21	48.153
1376.48	46.0837
1376.75	46.076
1377.02	49.1573
1377.29	51.1974
1377.56	54.2403
1377.83	53.1854
1378.09	49.0468
1378.36	56.2559
1378.64	54.1846
1378.91	57.2418
1379.18	59.2661
1379.44	65.4009
1379.71	63.323
1379.98	63.2964
1380.25	67.3811
1380.52	60.1802
1380.79	70.4222
1381.06	61.1825
1381.33	68.36
1381.6	70.4147
1381.87	66.3242
1382.14	75.5718
1382.41	74.5755
1382.68	69.4617
1382.95	71.5307
1383.22	70.5112
1383.49	66.4171
1383.76	70.5313
1384.03	70.5301
1384.3	76.6432
1384.57	81.6146
1384.84	87.6079
1385.11	92.6475
1385.38	99.9094
1385.65	130.809
1385.92	170.981
1386.19	212.175
1386.45	379.544
1386.72	577.8
1386.99	787.057
1387.26	590.535
1387.53	320.576
1387.8	171.908
1388.07	119.557
1388.34	83.6737
1388.61	66.2448
1388.88	61.106
1389.15	54.9429
1389.42	53.9049
1389.69	48.7749
1389.96	46.7193
1390.23	43.6416
1390.49	43.6359
1390.76	39.5368
1391.03	41.579
1391.3	38.5049
1391.57	37.478
1391.84	38.4984
1392.11	38.5006
1392.38	39.5296
1392.65	37.4862
1392.92	37.4871
1393.19	40.5558
1393.46	33.3864
1393.73	40.5453
1393.99	34.399
1394.26	34.3914
1394.53	36.4294
1394.8	31.3103
1395.07	30.2857
1395.34	34.3779
1395.61	31.3117
1395.88	32.336
1396.15	33.3597
1396.42	32.3405
1396.68	31.3198
1396.95	35.4157
1397.22	29.2734
1397.49	30.2996
1397.76	34.4016
1398.03	30.3088
1398.3	31.3309
1398.57	27.2366
1398.84	31.332
1399.11	31.3407
1399.38	32.3821
1399.64	25.2216
1399.91	30.3628
1400.18	30.3719
1400.45	25.2428
1400.72	29.3489
1400.99	33.4481
1401.26	32.4013
1401.53	25.2223
1401.79	32.4006
1402.06	32.3957
1402.33	33.4143
1402.6	32.3813
1402.87	27.2478
1403.14	31.3425
1403.41	33.3879
1403.68	32.3587
1403.94	32.359
1404.21	23.1347
1404.48	31.3367
1404.75	28.2618
1405.02	29.2877
1405.29	30.3135
1405.56	31.3395
1405.82	35.4426
1406.09	30.3169
1406.36	33.3953
1406.63	35.4483
1406.9	33.3976
1407.17	42.6297
1407.44	39.5433
1407.7	46.709
1407.97	48.743
1408.24	52.8294
1408.51	62.0408
1408.78	54.8596
1409.05	43.5866
1409.31	41.5422
1409.58	38.4778
1409.85	32.3461
1410.12	26.225
1410.39	30.3531
1410.66	24.1707
1410.92	25.1583
1411.19	31.3145
1411.46	29.2823
1411.73	25.1904
1412	31.3469
1412.27	27.2404
1412.53	29.2927
1412.8	20.0519
1413.07	29.2936
1413.34	28.2683
1413.61	26.216
1413.88	28.2718
1414.14	23.138
1414.41	27.2491
1414.68	26.2236
1414.95	23.1415
1415.22	29.3062
1415.48	26.2233
1415.75	26.2237
1416.02	22.1119
1416.29	26.2224
1416.56	23.1356
1416.82	27.2399
1417.09	25.1785
1417.36	24.1455
1417.63	24.1393
1417.9	23.1061
1418.17	23.1004
1418.43	25.1495
1418.7	26.176
1418.97	23.1015
1419.24	26.1898
1419.5	22.0878
1419.77	21.0709
1420.04	21.0876
1420.31	20.0771
1420.58	25.1749
1420.84	21.0052
1421.11	25.1161
1421.38	25.0901
1421.65	26.1097
1421.92	25.0941
1422.18	24.0817
1422.45	24.0892
1422.72	23.0551
1422.99	24.0898
1423.26	24.0868
1423.52	25.1073
1423.79	23.0485
1424.06	23.0409
1424.33	24.0576
1424.59	25.0711
1424.86	23.0127
1425.13	24.0315
1425.4	21.9808
1425.66	21.9798
1425.93	25.0518
1426.2	21.9807
1426.47	23.0062
1426.73	23.0087
1427	21.9881
1427.27	25.0674
1427.54	24.0469
1427.81	26.1037
1428.07	26.1142
1428.34	17.9135
1428.61	23.0475
1428.88	19.9676
1429.14	17.9105
1429.41	23.0347
1429.68	22.0039
1429.94	24.0473
1430.21	20.9613
1430.48	21.9757
1430.75	24.0141
1431.02	22.9824
1431.28	19.9067
1431.55	21.9629
1431.82	20.9429
1432.08	20.9427
1432.35	21.9665
1432.62	18.8907
1432.89	22.9873
1433.15	19.9108
1433.42	22.9819
1433.69	20.9296
1433.96	20.9263
1434.22	20.9233
1434.49	20.9214
1434.76	26.0388
1435.02	21.9397
1435.29	22.9637
1435.56	23.9904
1435.83	23.9916
1436.09	18.869
1436.36	17.8443
1436.63	20.92
1436.89	19.8988
1437.16	18.8782
1437.43	19.9051
1437.7	20.9307
1437.96	19.9045
1438.23	21.9555
1438.5	20.9274
1438.77	17.8468
1439.03	25.0201
1439.3	26.0495
1439.57	21.9474
1439.83	21.9509
1440.1	23.9982
1440.37	19.8913
1440.63	18.8619
1440.9	18.8586
1441.17	19.8817
1441.43	20.9066
1441.7	20.9118
1441.97	17.8387
1442.24	20.9222
1442.5	21.9452
1442.77	18.8643
1443.03	14.7582
1443.3	19.8842
1443.57	22.9585
1443.84	15.7764
1444.1	18.8504
1444.37	22.9489
1444.64	17.8183
1444.9	19.8654
1445.17	21.9142
1445.44	19.8662
1445.7	27.0491
1445.97	26.0242
1446.24	22.9458
1446.5	23.9683
1446.77	19.8621
1447.04	19.8575
1447.3	22.9282
1447.57	19.8498
1447.84	20.872
1448.1	22.9188
1448.37	20.866
1448.64	19.8379
1448.9	24.9578
1449.17	19.8318
1449.44	18.8052
1449.7	20.8533
1449.97	19.8285
1450.24	20.8544
1450.5	18.8058
1450.77	18.8049
1451.04	18.8023
1451.3	19.8246
1451.57	15.7246
1451.83	19.8223
1452.1	17.7712
1452.37	20.8426
1452.63	19.8169
1452.9	17.7697
1453.17	17.7705
1453.43	21.8691
1453.7	20.8413
1453.97	16.7376
1454.23	24.9298
1454.5	18.7798
1454.77	18.7773
1455.03	17.7508
1455.3	17.7497
1455.56	19.7977
1455.83	22.8711
1456.1	15.6995
1456.36	17.7479
1456.63	20.821
1456.9	18.7699
1457.16	16.7184
1457.43	20.8137
1457.69	19.7864
1457.96	16.7102
1458.23	18.7549
1458.49	20.7991
1458.76	16.6994
1459.02	20.79
1459.29	17.7143
1459.56	16.686
1459.82	18.7271
1460.09	18.7214
1460.36	20.7607
1460.62	16.6651
1460.89	17.6853
1461.15	18.7121
1461.42	15.6508
1461.69	19.7497
1461.95	19.7579
1462.22	19.7447
1462.48	21.7468
1462.75	17.6438
1463.02	18.6601
1463.28	16.6237
1463.55	19.6836
1463.81	18.653
1464.08	15.588
1464.35	17.6291
1464.61	18.6469
1464.88	19.6644
1465.14	18.6421
1465.41	19.6606
1465.67	15.5788
1465.94	18.6366
1466.21	16.5937
1466.47	19.6496
1466.74	18.6249
1467	16.5803
1467.27	18.614
1467.54	17.591
1467.8	19.6254
1468.07	19.6225
1468.33	20.6374
1468.6	19.6133
1468.86	16.5541
1469.13	14.5149
1469.39	16.5496
1469.66	15.5296
1469.93	20.6189
1470.19	18.5798
1470.46	20.6118
1470.72	20.6073
1470.99	17.5502
1471.25	17.5476
1471.52	18.5639
1471.79	17.5465
1472.05	19.5823
1472.32	22.6348
1472.58	19.5795
1472.85	17.541
1473.11	17.5373
1473.38	17.5342
1473.64	16.5139
1473.91	17.5272
1474.17	20.5741
1474.44	18.5369
1474.71	18.535
1474.97	16.4993
1475.24	21.5803
1475.5	17.5082
1475.77	19.5371
1476.03	18.5165
1476.3	18.5119
1476.56	17.491
1476.83	17.4858
1477.09	15.4494
1477.36	16.4576
1477.62	17.4661
1477.89	16.4464
1478.15	19.4873
1478.42	16.4393
1478.68	18.4684
1478.95	18.4703
1479.22	20.5023
1479.48	16.4451
1479.75	16.4467
1480.01	15.4303
1480.28	18.4771
1480.54	17.4617
1480.81	18.4761
1481.07	17.4588
1481.34	18.4654
1481.6	18.4535
1481.87	20.4587
1482.13	19.4159
1482.4	13.3349
1482.66	19.3854
1482.93	19.4321
1483.19	17.4103
1483.46	17.4175
1483.72	16.3826
1483.99	19.4301
1484.25	15.3789
1484.52	16.3858
1484.78	18.4061
1485.05	16.3767
1485.31	14.3474
1485.58	19.4046
1485.84	18.3862
1486.11	18.3812
1486.37	18.3778
1486.64	17.3631
1486.9	18.3722
1487.17	20.3941
1487.43	17.3577
1487.7	19.3773
1487.96	16.338
1488.22	19.3666
1488.49	16.3302
1488.75	15.3171
1489.02	18.3487
1489.28	16.3263
1489.55	16.3245
1489.81	18.3442
1490.08	19.3532
1490.34	18.341
1490.61	18.3383
1490.87	19.3471
1491.14	17.3244
1491.4	18.3352
1491.67	19.3467
1491.93	17.3228
1492.19	17.3187
1492.46	16.3016
1492.72	18.3143
1492.99	17.2974
1493.25	17.2927
1493.52	17.2889
1493.78	18.2948
1494.05	18.2908
1494.31	17.28
1494.58	17.2787
1494.84	19.2947
1495.1	18.2838
1495.37	20.3011
1495.63	18.2818
1495.9	16.2627
1496.16	15.2528
1496.43	19.2901
1496.69	14.2433
1496.96	18.2816
1497.22	20.3003
1497.48	17.2702
1497.75	18.2778
1498.01	18.276
1498.28	21.301
1498.54	20.286
1498.81	15.2376
1499.07	20.2815
1499.34	16.243
1499.6	18.2582
1499.86	16.2352
1500.13	17.239
1500.39	18.2442
1500.66	19.2475
1500.92	18.2377
1501.18	19.2468
1501.45	16.2211
1501.71	17.2285
1501.98	15.2096
1502.24	20.2482
1502.5	17.2193
1502.77	20.2367
1503.03	19.2199
1503.3	15.1874
1503.56	18.2079
1503.83	18.2072
1504.09	15.1861
1504.35	21.2314
1504.62	19.2158
1504.88	18.2067
1505.15	18.2041
1505.41	16.1866
1505.67	18.2008
1505.94	17.1926
1506.2	19.207
1506.47	20.2131
1506.73	16.1811
1506.99	21.2203
1507.26	20.2131
1507.52	18.1924
1507.78	17.18
1508.05	18.1817
1508.31	19.182
1508.58	18.1662
1508.84	15.1366
1509.1	14.1212
1509.37	21.1475
1509.63	18.1228
1509.9	19.1208
1510.16	18.1107
1510.42	20.1135
1510.69	16.095
1510.95	18.1055
1511.21	17.1075
1511.48	18.1129
1511.74	16.1006
1512.01	16.0954
1512.27	20.1053
1512.53	20.0986
1512.8	17.0807
1513.06	17.0739
1513.32	16.0657
1513.59	18.0683
1513.85	18.0655
1514.11	18.0629
1514.38	17.0585
1514.64	17.0575
1514.9	21.0684
1515.17	17.0595
1515.43	20.0682
1515.7	15.0534
1515.96	17.0592
1516.22	21.0722
1516.49	16.0565
1516.75	16.0561
1517.01	20.0676
1517.28	17.0549
1517.54	17.0523
1517.8	17.052
1518.07	17.0525
1518.33	15.0462
1518.59	20.0626
1518.86	18.0538
1519.12	17.0475
1519.38	20.0538
1519.65	17.0408
1519.91	15.0317
1520.17	18.0361
1520.44	18.0291
1520.7	17.0182
1520.96	18.0138
1521.23	21.0133
1521.49	18.0037
1521.75	16.9981
1522.02	18.0001
1522.28	16.9983
1522.54	21.0038
1522.81	16.9991
1523.07	17.0012
1523.33	17.0049
1523.59	21.0166
1523.86	20.0149
1524.12	19.0109
1524.38	16
1524.65	14.9954
1524.91	22.0074
1525.17	21.0022
1525.44	17.9926
1525.7	17.9893
1525.96	14.9811
1526.23	16.9823
1526.49	17.9824
1526.75	20.9846
1527.02	21.9811
1527.28	16.9719
1527.54	15.9708
1527.8	16.9747
1528.07	14.9735
1528.33	18.9829
1528.59	19.9842
1528.86	18.9795
1529.12	18.9789
1529.38	20.9785
1529.64	18.9758
1529.91	19.9821
1530.17	14.9755
