#Acq. time (s)=	30
#Accumulations=	2
#Range (cm-¹)=	1200...2400
#Windows=	4
#Auto scanning=	Off
#Autofocus=	Off
#Macrospot=	Off
#AutoExposure=	Off
#Spike filter=	Multiple accum.
#Delay time (s)=	2
#Binning=	1
#Readout mode=	Signal
#DeNoise=	Off
#ICS correction=	On
#Dark correction=	Off
#Inst. Process=	Off
#Detector Gain=	Best Dynamic
#Detector ADC=	50 kHz HS
#Detector temperature (°C)=	-60.09
#Instrument=	LabRAM HR Evol
#Detector=	SIN-EM FIVIS
#Objective=	x100_VIS
#Grating=	1800 (450-850nm)
#ND Filter=	100%
#Laser=	532nm_Edge
#Hole=	49.98
#Temperature=	0
#Range=	Visible
#StageXY=	75x50mm Scan+
#StageZ=	Z motor
#X (µm)=	0
#Y (µm)=	0
#Z (µm)=	-245.5
#Full time(mm:ss)=	4:27
#Project=	21_11_04
#Sample=	BU19w
#Site=	
#Title=	BU19w-E-FF11b-FI06-V_1800 (450-850nm)_532nm_Edge_100%_x100_VIS_H50um_30sX2
#Remark=	
#Date=	04.11.2021 18:08
#Acquired=	04.11.2021 18:08:13
1200.19	30.709
1200.46	28.5498
1200.74	28.5357
1201.02	30.6664
1201.3	26.3457
1201.57	28.4836
1201.85	23.11
1202.13	30.661
1202.41	26.4062
1202.69	27.462
1202.96	29.6046
1203.24	24.197
1203.52	31.7215
1203.8	27.4049
1204.08	30.6422
1204.35	31.7145
1204.63	28.4817
1204.91	27.3949
1205.19	27.3838
1205.47	29.5168
1205.74	29.503
1206.02	27.3445
1206.3	30.5471
1206.58	26.2479
1206.85	32.665
1207.13	28.3747
1207.41	29.4387
1207.69	28.3639
1207.97	26.2169
1208.24	27.2785
1208.52	30.4799
1208.8	29.404
1209.08	30.4709
1209.36	28.3312
1209.63	29.3964
1209.91	33.6627
1210.19	27.2391
1210.46	27.229
1210.74	30.4223
1211.02	29.3445
1211.3	31.4682
1211.57	27.1905
1211.85	28.2472
1212.13	32.5019
1212.41	30.3616
1212.69	26.0936
1212.96	29.2838
1213.24	32.473
1213.52	26.0822
1213.79	28.2126
1214.07	28.2134
1214.35	25.0195
1214.63	26.0836
1214.9	30.3409
1215.18	26.0811
1215.46	29.2701
1215.74	28.1974
1216.01	28.1863
1216.29	28.1744
1216.57	28.1643
1216.85	29.2185
1217.12	27.0856
1217.4	26.0166
1217.68	28.1341
1217.95	27.0662
1218.23	32.3678
1218.51	27.0592
1218.79	32.3622
1219.06	30.2374
1219.34	25.9889
1219.62	25.986
1219.89	32.3501
1220.17	33.4097
1220.45	32.3473
1220.73	30.2214
1221	29.1564
1221.28	30.2099
1221.56	28.0805
1221.84	32.3055
1222.11	30.1726
1222.39	33.3316
1222.67	33.3171
1222.94	31.1866
1223.22	33.2896
1223.5	31.164
1223.77	30.0982
1224.05	31.1481
1224.33	31.1419
1224.61	29.0282
1224.88	27.9727
1225.16	26.9218
1225.44	27.9804
1225.71	35.374
1225.99	32.2037
1226.27	34.3116
1226.54	31.1384
1226.82	31.1293
1227.1	33.2167
1227.37	32.135
1227.65	33.1694
1227.93	37.3545
1228.21	31.0136
1228.48	33.1001
1228.76	29.9758
1229.03	31.1011
1229.31	33.2385
1229.59	39.5319
1229.86	34.2367
1230.14	33.1785
1230.42	28.9615
1230.69	33.1319
1230.97	30.9968
1231.25	33.1013
1231.52	32.0498
1231.8	33.098
1232.08	34.1462
1232.35	30.9932
1232.63	36.2433
1232.91	32.0389
1233.18	35.1906
1233.46	30.991
1233.74	27.8419
1234.01	29.9467
1234.29	31.0026
1234.57	33.1085
1234.84	33.1112
1235.12	37.32
1235.4	32.0673
1235.67	33.1202
1235.95	32.0665
1236.23	26.806
1236.5	34.1588
1236.78	33.0985
1237.06	35.1877
1237.33	33.0751
1237.61	32.0138
1237.88	30.9527
1238.16	27.7954
1238.44	29.8866
1238.71	30.9304
1238.99	30.9265
1239.27	31.972
1239.54	26.7293
1239.82	36.1624
1240.1	28.8254
1240.37	33.0194
1240.65	25.6833
1240.92	30.9252
1241.2	31.9681
1241.48	33.0106
1241.75	31.9603
1242.03	30.915
1242.3	31.9641
1242.58	25.6818
1242.86	29.8764
1243.13	30.923
1243.41	30.9248
1243.68	31.9753
1243.96	26.7316
1244.24	37.2123
1244.51	27.7748
1244.79	30.9106
1245.06	31.9506
1245.34	31.9377
1245.62	37.1631
1245.89	27.7396
1246.17	30.8776
1246.44	25.6451
1246.72	26.6904
1247	27.7347
1247.27	30.8742
1247.55	27.7291
1247.82	35.0398
1248.1	30.853
1248.38	26.6692
1248.65	32.9471
1248.93	27.7185
1249.2	29.8079
1249.48	27.7159
1249.75	29.8064
1250.03	32.9353
1250.31	29.7912
1250.58	33.9653
1250.86	37.0936
1251.13	28.7295
1251.41	32.9026
1251.69	30.8079
1251.96	30.8021
1252.24	33.928
1252.51	31.8336
1252.79	31.8286
1253.06	27.6527
1253.34	31.8288
1253.61	28.7031
1253.89	29.7528
1254.17	34.9784
1254.44	31.8476
1254.72	34.9813
1254.99	27.6731
1255.27	31.8495
1255.54	32.8934
1255.82	36.0282
1256.09	31.8545
1256.37	32.9025
1256.65	29.7692
1256.92	30.8108
1257.2	30.8071
1257.47	36.0257
1257.75	32.8904
1258.02	33.9317
1258.3	39.1447
1258.57	37.0513
1258.85	30.7907
1259.13	34.9684
1259.4	33.9371
1259.67	33.9394
1259.95	31.8436
1260.23	33.9209
1260.5	38.084
1260.78	31.8169
1261.05	40.157
1261.33	39.1334
1261.6	38.1284
1261.88	37.1419
1262.15	41.2938
1262.43	36.0174
1262.7	41.1867
1262.98	42.2488
1263.25	38.109
1263.53	42.3164
1263.8	46.5507
1264.08	46.5352
1264.35	38.1516
1264.63	33.9668
1264.9	41.2843
1265.18	37.0954
1265.45	39.1819
1265.73	32.9137
1266	31.872
1266.28	36.0576
1266.55	37.1103
1266.83	35.0283
1267.1	37.13
1267.38	36.0948
1267.66	35.0609
1267.93	38.2202
1268.2	39.2769
1268.48	43.4741
1268.75	41.3854
1269.03	37.1984
1269.31	37.1917
1269.58	41.372
1269.85	38.2185
1270.13	35.0703
1270.4	41.3419
1270.68	37.1505
1270.95	40.2872
1271.23	35.052
1271.5	38.1968
1271.78	42.3937
1272.05	34.0305
1272.33	37.185
1272.6	39.2896
1272.88	42.4441
1273.15	37.214
1273.43	33.0296
1273.7	38.2812
1273.98	40.3836
1274.25	34.0905
1274.53	37.2363
1274.8	42.4828
1275.07	38.2921
1275.35	39.3478
1275.62	35.1578
1275.9	38.3146
1276.17	38.3218
1276.45	41.4787
1276.72	40.436
1277	32.0416
1277.27	37.3034
1277.54	38.3627
1277.82	40.4725
1278.1	41.5336
1278.37	36.2845
1278.64	36.2909
1278.92	38.3974
1279.19	37.3431
1279.47	43.6502
1279.74	40.4911
1280.02	42.5952
1280.29	40.4947
1280.56	45.7611
1280.84	45.7747
1281.11	54.2065
1281.39	58.4196
1281.66	58.421
1281.94	73.168
1282.21	83.6957
1282.49	98.4097
1282.76	122.527
1283.03	137.155
1283.31	141.343
1283.58	147.617
1283.86	149.988
1284.13	121.692
1284.41	87.993
1284.68	67.9513
1284.95	58.4421
1285.23	53.1664
1285.5	43.6981
1285.78	42.6528
1286.05	41.5921
1286.32	36.3246
1286.6	37.3767
1286.87	38.4259
1287.15	34.209
1287.42	37.3607
1287.69	36.3061
1287.97	33.1496
1288.24	32.0982
1288.52	32.1017
1288.79	36.318
1289.06	32.113
1289.34	33.1723
1289.61	36.3395
1289.89	30.0237
1290.16	31.074
1290.43	33.1777
1290.71	35.2832
1290.98	34.2298
1291.26	31.0697
1291.53	28.9618
1291.8	30.0166
1292.08	30.0187
1292.35	35.2802
1292.62	32.1198
1292.9	32.1232
1293.17	27.9234
1293.45	33.2045
1293.72	27.9463
1293.99	34.2714
1294.27	32.1637
1294.54	32.1603
1294.82	30.0619
1295.09	31.1314
1295.36	25.8704
1295.64	26.9458
1295.91	31.1803
1296.18	32.2385
1296.46	30.1246
1296.73	31.1768
1297.01	30.1145
1297.28	30.1081
1297.55	33.2695
1297.83	31.1514
1298.1	30.1002
1298.37	33.2634
1298.65	25.8675
1298.92	31.1423
1299.19	29.0274
1299.47	30.0849
1299.74	24.8113
1300.02	29.0365
1300.29	29.0366
1300.56	30.091
1300.84	26.9233
1301.11	30.0937
1301.38	27.9868
1301.65	26.9343
1301.93	29.0486
1302.2	29.049
1302.47	26.9356
1302.75	30.102
1303.02	31.1541
1303.29	32.2061
1303.57	32.2058
1303.84	27.9826
1304.12	33.2623
1304.39	26.9252
1304.66	27.9772
1304.94	32.1939
1305.21	27.9656
1305.48	30.0692
1305.75	29.0076
1306.03	23.7299
1306.3	33.2201
1306.57	31.1121
1306.85	30.0595
1307.12	27.9505
1307.39	25.8406
1307.67	26.8962
1307.94	26.8961
1308.21	25.841
1308.49	31.118
1308.76	30.0676
1309.03	36.403
1309.31	25.8549
1309.58	26.9114
1309.85	26.9101
1310.13	32.1855
1310.4	24.7992
1310.67	30.0772
1310.94	26.9125
1311.22	27.9693
1311.49	31.1398
1311.76	30.0894
1312.04	27.9811
1312.31	30.0944
1312.58	26.9233
1312.85	27.9759
1313.13	31.1421
1313.4	30.0835
1313.67	29.0266
1313.95	31.1385
1314.22	29.0297
1314.49	26.9215
1314.76	27.9808
1315.04	26.9282
1315.31	31.1565
1315.58	29.0464
1315.86	30.1009
1316.13	31.1554
1316.4	29.0421
1316.67	27.9856
1316.95	30.0993
1317.22	33.2722
1317.49	27.9933
1317.77	27.9948
1318.04	24.8265
1318.31	29.0528
1318.58	25.8833
1318.86	29.0517
1319.13	29.0507
1319.4	23.7689
1319.67	26.9394
1319.95	29.052
1320.22	29.0495
1320.49	27.9883
1320.76	31.1492
1321.04	30.0843
1321.31	25.8554
1321.58	30.0699
1321.85	26.8988
1322.13	31.1141
1322.4	29.0007
1322.67	30.0497
1322.94	23.7222
1323.22	25.8331
1323.49	28.9975
1323.76	31.1062
1324.03	25.8339
1324.31	27.9423
1324.58	28.9981
1324.85	27.9418
1325.12	27.9324
1325.4	27.919
1325.67	28.9528
1325.94	27.8854
1326.21	27.8791
1326.48	26.8288
1326.76	30.0015
1327.03	27.9102
1327.3	31.0806
1327.57	26.8762
1327.85	30.0501
1328.12	26.8968
1328.39	25.8492
1328.66	25.8469
1328.93	26.9029
1329.21	29.0138
1329.48	25.8472
1329.75	29.0094
1330.02	25.841
1330.3	27.9448
1330.57	27.9376
1330.84	28.9826
1331.11	27.9167
1331.38	23.6932
1331.66	30.0024
1331.93	28.9416
1332.2	29.9846
1332.47	22.6118
1332.74	23.6556
1333.01	28.9032
1333.29	25.7426
1333.56	24.6849
1333.83	27.8287
1334.1	32.0211
1334.37	28.8648
1334.65	25.711
1334.92	28.8536
1335.19	29.8975
1335.46	27.7947
1335.73	27.7902
1336.01	26.7379
1336.28	30.928
1336.55	27.7799
1336.82	24.6329
1337.09	26.7271
1337.37	27.7717
1337.64	26.7152
1337.91	24.6158
1338.18	28.8019
1338.45	29.8438
1338.72	27.7478
1339	29.8418
1339.27	28.7966
1339.54	26.7036
1339.81	30.8927
1340.08	29.8471
1340.35	25.6586
1340.63	29.8466
1340.9	27.7508
1341.17	26.7013
1341.44	29.8389
1341.71	23.5528
1341.98	26.687
1342.26	24.5871
1342.53	26.6734
1342.8	28.7628
1343.07	26.6693
1343.34	27.7147
1343.61	30.8522
1343.88	23.5319
1344.16	28.7605
1344.43	25.6198
1344.7	24.5696
1344.97	26.6539
1345.24	30.8253
1345.51	26.6387
1345.79	28.7167
1346.06	25.5721
1346.33	31.8255
1346.6	27.6433
1346.87	27.635
1347.14	22.4154
1347.41	28.6664
1347.68	29.7055
1347.95	27.6187
1348.23	29.7003
1348.5	29.6952
1348.77	26.5644
1349.04	25.5178
1349.31	27.596
1349.58	25.5087
1349.86	27.5862
1350.13	31.7437
1350.4	26.5333
1350.67	30.6887
1350.94	29.6425
1351.21	30.6769
1351.48	28.5956
1351.75	27.5567
1352.02	28.601
1352.3	29.6486
1352.57	26.5337
1352.84	27.5861
1353.11	28.6541
1353.38	29.7016
1353.65	27.5847
1353.92	26.5079
1354.19	28.5715
1354.46	29.6142
1354.73	31.6895
1355.01	29.5991
1355.28	36.8714
1355.55	30.6545
1355.82	27.5304
1356.09	29.6044
1356.36	31.679
1356.63	29.5993
1356.9	26.4807
1357.17	31.6685
1357.44	31.6634
1357.71	31.6579
1357.99	31.6521
1358.26	30.6095
1358.53	30.6025
1358.8	32.6718
1359.07	27.4823
1359.34	34.7374
1359.61	29.5429
1359.88	31.6076
1360.15	27.4547
1360.42	31.5946
1360.69	29.5214
1360.96	34.7007
1361.23	27.4482
1361.5	31.5894
1361.78	31.5849
1362.05	29.5112
1362.32	32.6146
1362.59	32.6147
1362.86	32.618
1363.13	32.6244
1363.4	30.556
1363.67	35.7391
1363.94	32.6293
1364.21	35.7343
1364.48	32.6228
1364.75	33.6517
1365.02	33.644
1365.29	32.6011
1365.56	35.6981
1365.83	32.5866
1366.11	32.5785
1366.38	33.6024
1366.65	32.5585
1366.92	33.5885
1367.19	34.6207
1367.46	36.6932
1367.73	38.7627
1368	35.6639
1368.27	35.6661
1368.54	38.7701
1368.81	40.8413
1369.08	41.8757
1369.35	35.6672
1369.62	38.7644
1369.89	36.6912
1370.16	36.6829
1370.43	35.6447
1370.7	33.5711
1370.97	34.5937
1371.24	43.872
1371.51	41.7911
1371.78	40.7444
1372.05	40.7315
1372.32	41.7532
1372.59	40.716
1372.86	34.5269
1373.13	43.7977
1373.4	42.7631
1373.67	44.8205
1373.94	42.7569
1374.21	43.7842
1374.48	41.7197
1374.75	47.8975
1375.02	48.9313
1375.29	46.8741
1375.56	57.1771
1375.83	53.0528
1376.1	56.1294
1376.37	57.1437
1376.64	63.2971
1376.91	48.8784
1377.18	56.0912
1377.45	67.4333
1377.72	61.2825
1377.99	63.3767
1378.26	65.4638
1378.53	70.6247
1378.8	62.3718
1379.07	70.6101
1379.34	71.6295
1379.61	83.9753
1379.88	77.7441
1380.15	82.8398
1380.42	78.685
1380.69	78.6788
1380.96	81.7637
1381.23	90.9885
1381.5	86.8339
1381.77	85.7662
1382.04	90.8675
1382.31	79.5422
1382.58	81.5687
1382.85	75.3894
1383.12	83.5761
1383.39	75.3581
1383.66	75.354
1383.93	82.5342
1384.2	75.3673
1384.47	81.5353
1384.74	74.3836
1385.01	84.6703
1385.28	87.7737
1385.55	89.8396
1385.82	115.531
1386.09	133.01
1386.36	175.133
1386.62	225.448
1386.89	311.263
1387.16	317.848
1387.43	271.36
1387.7	185.555
1387.97	121.331
1388.24	87.6626
1388.51	73.3938
1388.78	61.0866
1389.05	58.0203
1389.32	52.8828
1389.59	50.8045
1389.86	49.7308
1390.13	44.6125
1390.4	46.6437
1390.67	47.6573
1390.94	37.4077
1391.21	39.451
1391.47	40.4656
1391.74	37.3828
1392.01	37.3755
1392.28	38.3936
1392.55	36.3414
1392.82	37.3612
1393.09	37.3576
1393.36	37.3544
1393.63	41.4449
1393.9	37.3492
1394.17	32.231
1394.44	29.1607
1394.71	35.3066
1394.97	36.3352
1395.24	37.3628
1395.51	36.3397
1395.78	35.3142
1396.05	33.2637
1396.32	35.3063
1396.59	31.2089
1396.86	32.2254
1397.13	35.2891
1397.4	36.3098
1397.66	32.2192
1397.93	30.1763
1398.2	37.3408
1398.47	31.2046
1398.74	31.2074
1399.01	30.189
1399.28	32.2391
1399.55	31.2176
1399.82	32.2423
1400.09	31.2246
1400.35	33.2791
1400.62	27.137
1400.89	31.2336
1401.16	31.2362
1401.43	30.2156
1401.7	28.1789
1401.97	26.1449
1402.24	32.3144
1402.5	34.3797
1402.77	27.203
1403.04	33.3657
1403.31	31.3104
1403.58	28.2209
1403.85	32.3166
1404.12	33.3446
1404.39	30.2638
1404.65	31.2854
1404.92	34.3566
1405.19	29.2235
1405.46	26.143
1405.73	33.315
1406	31.2618
1406.27	28.1861
1406.54	31.2628
1406.8	30.2403
1407.07	35.3685
1407.34	38.4465
1407.61	34.3476
1407.88	38.4512
1408.15	35.3774
1408.42	40.5081
1408.68	42.563
1408.95	39.4895
1409.22	33.3378
1409.49	33.3395
1409.76	34.3628
1410.03	34.3552
1410.29	29.219
1410.56	33.3108
1410.83	27.1556
1411.1	30.2251
1411.37	27.1486
1411.64	30.2231
1411.9	26.1301
1412.17	28.1896
1412.44	26.1637
1412.71	24.1377
1412.98	27.2224
1413.25	26.1618
1413.51	26.1455
1413.78	29.2343
1414.05	26.1748
1414.32	27.2061
1414.59	22.0728
1414.86	25.1534
1415.12	27.207
1415.39	25.1552
1415.66	25.1574
1415.93	27.2138
1416.2	28.2436
1416.47	24.1383
1416.73	25.1685
1417	28.254
1417.27	29.2841
1417.54	26.2027
1417.81	26.2033
1418.07	25.1776
1418.34	22.0949
1418.61	26.207
1418.88	23.1232
1419.15	27.2302
1419.41	21.0608
1419.68	30.3014
1419.95	24.134
1420.22	25.1557
1420.49	26.1772
1420.75	22.0674
1421.02	25.1458
1421.29	28.2282
1421.56	24.1313
1421.83	27.2191
1422.09	26.2033
1422.36	25.1904
1422.63	24.1878
1422.9	27.294
1423.17	22.0436
1423.43	24.1048
1423.7	29.2167
1423.97	26.1159
1424.24	26.1345
1424.5	28.179
1424.77	29.2451
1425.04	28.1931
1425.31	24.1073
1425.58	27.1854
1425.84	24.1063
1426.11	25.1261
1426.38	23.0693
1426.65	27.1628
1426.91	24.0809
1427.18	25.0939
1427.45	26.1123
1427.72	20.9897
1427.98	26.1085
1428.25	23.0379
1428.52	26.1116
1428.79	27.1382
1429.06	25.0934
1429.32	28.171
1429.59	26.1286
1429.86	27.1609
1430.12	27.1659
1430.39	23.0741
1430.66	25.137
1430.93	26.1703
1431.2	24.1205
1431.46	27.1983
1431.73	23.0875
1432	25.1342
1432.26	28.2083
1432.53	22.0455
1432.8	24.0874
1433.07	26.1261
1433.33	24.0686
1433.6	26.1123
1433.87	27.1366
1434.14	24.0788
1434.4	27.1544
1434.67	25.1059
1434.94	24.0812
1435.21	23.0558
1435.47	25.1041
1435.74	22.0288
1436.01	25.1009
1436.28	22.0253
1436.54	25.0963
1436.81	25.0947
1437.08	25.094
1437.34	24.0671
1437.61	24.0669
1437.88	26.1178
1438.15	24.0727
1438.41	24.0746
1438.68	26.1246
1438.95	26.127
1439.21	25.1071
1439.48	24.0884
1439.75	17.9423
1440.01	23.0712
1440.28	22.0469
1440.55	23.0732
1440.82	23.0735
1441.08	16.9188
1441.35	23.0681
1441.62	23.0687
1441.88	25.1228
1442.15	24.0998
1442.42	25.1275
1442.69	26.1495
1442.95	28.1961
1443.22	23.0667
1443.49	17.9395
1443.75	22.04
1444.02	26.1444
1444.29	26.1515
1444.55	24.1074
1444.82	23.0855
1445.09	24.1095
1445.35	25.1333
1445.62	24.1056
1445.89	25.1295
1446.15	26.1533
1446.42	25.1259
1446.69	23.073
1446.95	26.1466
1447.22	26.1437
1447.49	15.8902
1447.76	24.0932
1448.02	26.1492
1448.29	21.0254
1448.56	25.1289
1448.82	24.1024
1449.09	19.998
1449.35	26.1476
1449.62	23.0677
1449.89	27.1652
1450.15	22.038
1450.42	26.1362
1450.69	25.1093
1450.96	24.0824
1451.22	26.1295
1451.49	22.0289
1451.75	26.1256
1452.02	21.0027
1452.29	24.0769
1452.55	22.0296
1452.82	27.156
1453.09	24.0834
1453.35	26.1325
1453.62	23.0566
1453.89	22.0313
1454.15	25.1056
1454.42	24.0809
1454.68	26.1291
1454.95	24.0786
1455.22	23.0565
1455.48	26.1347
1455.75	23.0614
1456.02	25.1108
1456.28	24.0831
1456.55	24.0789
1456.82	25.1006
1457.08	26.1234
1457.35	19.9756
1457.61	23.0484
1457.88	23.0487
1458.15	25.0986
1458.41	25.1002
1458.68	25.1012
1458.95	25.1024
1459.21	23.0532
1459.48	24.0767
1459.74	27.1486
1460.01	27.1468
1460.28	25.0958
1460.54	23.0445
1460.81	24.0658
1461.08	24.0628
1461.34	20.9878
1461.61	23.0315
1461.87	22.0039
1462.14	23.0227
1462.41	21.9947
1462.67	21.9897
1462.94	24.0296
1463.2	23.0029
1463.47	19.9374
1463.74	24.0379
1464	23.0243
1464.27	23.0324
1464.53	24.0695
1464.8	24.0256
1465.07	25.0154
1465.33	22.9588
1465.6	27.0469
1465.86	19.9069
1466.13	21.9422
1466.39	24.9925
1466.66	20.9146
1466.93	26.0157
1467.19	20.9131
1467.46	23.9721
1467.72	21.9313
1467.99	23.9712
1468.26	26.0106
1468.52	21.929
1468.79	26.006
1469.05	19.8845
1469.32	21.9189
1469.58	22.9333
1469.85	23.9487
1470.12	22.9269
1470.38	24.9621
1470.65	25.9798
1470.91	23.9375
1471.18	23.9332
1471.44	23.9307
1471.71	18.8381
1471.97	18.8376
1472.24	21.8918
1472.51	24.9458
1472.77	24.9434
1473.04	23.9213
1473.3	26.9715
1473.57	19.8448
1473.83	19.8439
1474.1	22.8974
1474.36	20.8647
1474.63	22.9011
1474.9	19.8477
1475.16	22.9001
1475.43	21.88
1475.69	22.8944
1475.96	22.8928
1476.22	20.856
1476.49	23.9036
1476.75	25.9342
1477.02	21.8651
1477.29	21.8645
1477.55	24.9147
1477.81	21.8606
1478.08	23.8896
1478.34	22.8698
1478.61	26.9315
1478.88	24.8947
1479.14	21.8421
1479.41	24.8846
1479.67	21.832
1479.94	19.7945
1480.2	23.8489
1480.47	20.8011
1480.73	20.7987
1481	22.826
1481.26	22.8287
1481.53	22.8326
1481.79	21.822
1482.06	21.8261
1482.32	20.8131
1482.59	26.9058
1482.85	27.9241
1483.12	23.8635
1483.38	25.8943
1483.65	18.783
1483.92	26.8933
1484.18	20.7893
1484.44	25.8298
1484.71	22.7676
1484.97	24.776
1485.24	20.7384
1485.5	23.8106
1485.77	18.7509
1486.03	22.8014
1486.3	25.8293
1486.56	17.7329
1486.83	22.7991
1487.09	19.7539
1487.36	23.8014
1487.62	24.8107
1487.89	19.7437
1488.15	25.8129
1488.42	18.7229
1488.68	26.8151
1488.95	24.7889
1489.21	24.7869
1489.48	24.7859
1489.74	19.7274
1490.01	18.7149
1490.27	22.7579
1490.54	23.7647
1490.8	20.7276
1491.07	21.7371
1491.33	23.7585
1491.6	26.792
1491.86	24.7704
1492.12	20.7254
1492.39	25.7792
1492.65	26.7898
1492.92	21.7345
1493.18	23.7549
1493.45	23.7545
1493.71	22.7444
1493.98	19.7134
1494.24	23.7582
1494.51	21.7346
1494.77	25.7729
1495.04	24.7543
1495.3	19.6958
1495.56	23.7302
1495.83	24.736
1496.09	22.7139
1496.36	22.7107
1496.62	22.7089
1496.89	19.681
1497.15	21.6989
1497.42	23.7163
1497.68	24.7253
1497.94	23.7165
1498.21	24.7264
1498.47	24.7273
1498.74	19.6819
1499	19.6834
1499.27	22.7137
1499.53	21.7057
1499.8	23.7254
1500.06	21.7058
1500.32	22.7148
1500.59	23.7232
1500.85	25.7381
1501.12	23.7162
1501.38	21.6968
1501.64	21.6962
1501.91	21.6952
1502.17	21.6921
1502.44	21.6872
1502.7	22.6929
1502.97	23.6975
1503.23	21.6781
1503.5	25.7126
1503.76	20.6725
1504.02	19.6648
1504.29	24.7069
1504.55	22.6885
1504.81	25.7107
1505.08	24.6982
1505.34	26.7043
1505.61	24.6836
1505.87	23.675
1506.13	20.652
1506.4	25.6923
1506.66	21.664
1506.93	23.6804
1507.19	24.6889
1507.46	22.6727
1507.72	21.6634
1507.98	21.6629
1508.25	22.6713
1508.51	19.6491
1508.77	23.6798
1509.04	22.6716
1509.3	23.6798
1509.57	22.6761
1509.83	22.6743
1510.09	20.6551
1510.36	22.6655
1510.62	23.6673
1510.89	21.6465
1511.15	25.662
1511.41	21.625
1511.68	20.6092
1511.94	26.6277
1512.21	24.6099
1512.47	20.5869
1512.73	21.5865
1513	22.5866
1513.26	26.6016
1513.52	23.5994
1513.79	25.6154
1514.05	23.6061
1514.31	24.6073
1514.58	26.6087
1514.84	21.5832
1515.1	23.5844
1515.37	23.5772
1515.63	22.5674
1515.9	28.5812
1516.16	24.5677
1516.42	23.5631
1516.69	22.5592
1516.95	22.559
1517.21	24.565
1517.48	24.5679
1517.74	18.554
1518	22.5669
1518.27	25.5776
1518.53	23.5732
1518.79	22.572
1519.06	29.5965
1519.32	21.5709
1519.58	21.57
1519.85	25.5808
1520.11	22.5707
1520.37	24.5788
1520.64	22.5746
1520.9	22.5763
1521.16	23.5799
1521.43	20.5686
1521.69	21.5699
1521.95	20.5643
1522.22	22.5681
1522.48	25.574
1522.75	22.5606
1523.01	23.5556
1523.27	21.5434
1523.53	19.5346
1523.8	20.5324
1524.06	24.5346
1524.32	24.533
1524.59	19.5281
1524.85	21.5319
1525.11	25.5398
1525.38	23.5404
1525.64	24.5474
1525.9	27.56
1526.17	21.5504
1526.43	20.549
1526.69	20.5477
1526.95	23.552
1527.22	20.544
1527.48	29.5609
1527.74	23.5463
