#Acq. time (s)=	30
#Accumulations=	2
#Range (cm-¹)=	1200...2365
#Windows=	3
#Auto scanning=	Off
#Autofocus=	Off
#Macrospot=	Off
#AutoExposure=	Off
#Spike filter=	Multiple accum.
#Delay time (s)=	2
#Binning=	1
#Readout mode=	Signal
#DeNoise=	Off
#ICS correction=	On
#Dark correction=	Off
#Inst. Process=	Off
#Detector Gain=	Best Dynamic
#Detector ADC=	50 kHz HS
#Detector temperature (°C)=	-60.09
#Instrument=	LabRAM HR Evol
#Detector=	SIN-EM FIVIS
#Objective=	x100_VIS_LWD
#Grating=	1800 (450-850nm)
#ND Filter=	100%
#Laser=	532nm_Edge
#Hole=	100.021
#Temperature=	0
#Range=	Visible
#StageXY=	75x50mm Scan+
#StageZ=	Z motor
#X (µm)=	0
#Y (µm)=	0
#Z (µm)=	-56
#Full time(mm:ss)=	3:17
#Project=	21_11_26
#Sample=	BU19(2)w
#Site=	
#Title=	BU19(2)w-A-FF1-FI09-V_1800 (450-850nm)_532nm_Edge_100%_x100_VIS_LWD_H100um_30sX2
#Remark=	
#Date=	26.11.2021 16:30
#Acquired=	26.11.2021 16:30:03
1202.72	66.1382
1203	75.9259
1203.28	79.1824
1203.56	76.981
1203.84	75.8455
1204.11	73.6575
1204.39	71.4781
1204.67	76.8557
1204.95	75.7888
1205.23	76.8483
1205.5	72.5202
1205.78	77.8598
1206.06	70.3079
1206.34	69.2003
1206.61	68.0946
1206.89	71.2779
1207.17	77.6725
1207.45	69.0727
1207.73	69.0543
1208	76.531
1208.28	69.0249
1208.56	65.7994
1208.84	76.4776
1209.11	77.5255
1209.39	70.0194
1209.67	73.2177
1209.95	65.7301
1210.23	61.4471
1210.5	62.5027
1210.78	73.1596
1211.06	63.518
1211.34	75.2405
1211.61	78.4128
1211.89	74.121
1212.17	67.6918
1212.45	70.8631
1212.72	68.7115
1213	63.3635
1213.28	69.7344
1213.56	69.7197
1213.83	70.7748
1214.11	65.4362
1214.39	71.8261
1214.67	70.7633
1214.94	66.5048
1215.22	72.8913
1215.5	66.5
1215.78	70.754
1216.05	72.8764
1216.33	71.7927
1216.61	69.6386
1216.89	67.481
1217.16	70.6421
1217.44	68.4944
1217.72	74.8477
1218	67.3913
1218.27	64.1895
1218.55	68.4205
1218.83	66.2827
1219.1	66.2741
1219.38	69.4519
1219.66	69.4445
1219.94	70.4959
1220.21	70.4826
1220.49	65.1763
1220.77	67.297
1221.04	73.6559
1221.32	77.8896
1221.6	73.6337
1221.88	71.4994
1222.15	70.4181
1222.43	69.3304
1222.71	71.4156
1222.98	75.6125
1223.26	70.2864
1223.54	66.0241
1223.81	74.4514
1224.09	70.1982
1224.37	68.0602
1224.65	71.2104
1224.92	69.0845
1225.2	71.1855
1225.48	70.1271
1225.76	69.0792
1226.03	73.3089
1226.31	74.3735
1226.59	75.4244
1226.86	75.4181
1227.14	72.2361
1227.42	71.1675
1227.69	75.3494
1227.97	73.1684
1228.25	75.2298
1228.52	65.7123
1228.8	66.7007
1229.08	78.2081
1229.35	79.2517
1229.63	73.1269
1229.91	79.6152
1230.18	77.4301
1230.46	78.4096
1230.74	71.0083
1231.01	76.282
1231.29	73.078
1231.57	72.9336
1231.84	70.8444
1232.12	72.9438
1232.4	78.1944
1232.67	73.9815
1232.95	81.3334
1233.23	73.9738
1233.5	75.0163
1233.78	80.2657
1234.06	81.3198
1234.33	84.4781
1234.61	73.9787
1234.89	67.6835
1235.16	74.0001
1235.44	81.363
1235.71	81.3697
1235.99	69.8141
1236.27	79.2819
1236.54	83.4853
1236.82	78.2177
1237.1	79.2556
1237.37	79.2374
1237.65	75.0077
1237.93	78.1304
1238.2	79.1515
1238.48	84.369
1238.76	76.9947
1239.03	78.0212
1239.31	81.1525
1239.58	85.3341
1239.86	82.1795
1240.14	75.8839
1240.41	83.2179
1240.69	79.0239
1240.97	82.1699
1241.24	79.0286
1241.52	82.1756
1241.79	85.312
1242.07	83.1996
1242.35	74.806
1242.62	80.0461
1242.9	87.3862
1243.18	88.4458
1243.45	89.5051
1243.73	86.3582
1244	86.3581
1244.28	82.1696
1244.56	84.2645
1244.83	85.3064
1245.11	90.5379
1245.39	85.2778
1245.66	87.3509
1245.94	91.5089
1246.21	97.7594
1246.49	94.6042
1246.76	94.5959
1247.04	94.5956
1247.32	93.5461
1247.59	93.5374
1247.87	89.3482
1248.14	91.4307
1248.42	97.6725
1248.7	99.7445
1248.97	99.7388
1249.25	92.4227
1249.52	99.7506
1249.8	102.881
1250.08	96.6013
1250.35	98.6934
1250.63	97.6262
1250.9	98.6454
1251.18	101.758
1251.45	101.737
1251.73	94.4051
1252.01	110.057
1252.28	101.681
1252.56	91.2189
1252.83	101.641
1253.11	105.794
1253.39	103.686
1253.66	98.4574
1253.94	106.805
1254.21	106.821
1254.49	100.577
1254.76	100.598
1255.04	106.871
1255.31	104.782
1255.59	119.409
1255.87	108.966
1256.14	106.871
1256.42	116.274
1256.69	124.637
1256.97	137.188
1257.24	150.773
1257.52	159.12
1257.79	155.964
1258.07	155.949
1258.35	150.715
1258.62	136.085
1258.9	145.464
1259.17	149.604
1259.45	149.6
1259.72	160.054
1260	172.605
1260.27	177.897
1260.55	194.557
1260.82	207.035
1261.1	224.7
1261.37	235.076
1261.65	246.511
1261.92	288.274
1262.2	297.927
1262.48	317.136
1262.75	321.519
1263.02	322.037
1263.3	337.297
1263.58	319.415
1263.85	297.808
1264.13	281.322
1264.4	257.539
1264.68	225.24
1264.95	198.962
1265.23	191.596
1265.5	187.415
1265.78	174.857
1266.05	170.645
1266.33	158.105
1266.6	154.981
1266.88	167.542
1267.15	150.848
1267.43	152.973
1267.7	153.013
1267.98	149.919
1268.25	158.339
1268.53	143.752
1268.8	136.472
1269.08	148.021
1269.35	143.853
1269.63	150.157
1269.9	152.243
1270.18	156.399
1270.45	153.209
1270.73	148.987
1271	155.231
1271.28	154.157
1271.55	139.495
1271.83	152.032
1272.1	154.135
1272.38	146.844
1272.65	147.931
1272.93	145.893
1273.2	145.93
1273.47	155.398
1273.75	159.632
1274.03	154.431
1274.3	161.812
1274.57	159.741
1274.85	169.188
1275.12	167.082
1275.4	170.229
1275.67	175.492
1275.95	174.471
1276.22	175.551
1276.5	183.989
1276.77	188.221
1277.05	191.407
1277.32	193.534
1277.6	209.337
1277.87	216.743
1278.14	214.692
1278.42	225.246
1278.69	252.622
1278.97	255.849
1279.24	281.134
1279.52	327.468
1279.79	376.891
1280.07	421.038
1280.34	530.368
1280.61	629.207
1280.89	821.733
1281.16	1116.34
1281.44	1477.51
1281.71	2043.15
1281.99	2722.37
1282.26	3489.66
1282.53	4160.56
1282.81	4567.43
1283.08	4701.41
1283.36	4256.16
1283.63	3677.43
1283.91	2904.77
1284.18	2114.5
1284.45	1549.99
1284.73	1083.32
1285	840.1
1285.28	638.826
1285.55	519.504
1285.83	429.834
1286.1	362.459
1286.37	336.21
1286.65	283.552
1286.92	267.706
1287.2	254.014
1287.47	224.519
1287.75	223.433
1288.02	207.606
1288.29	200.217
1288.57	204.424
1288.84	193.905
1289.12	181.289
1289.39	190.789
1289.66	186.611
1289.94	168.744
1290.21	171.938
1290.49	174.074
1290.76	173.02
1291.03	162.467
1291.31	157.192
1291.58	143.497
1291.86	149.814
1292.13	157.18
1292.4	151.915
1292.68	137.178
1292.95	147.702
1293.22	149.796
1293.5	144.537
1293.77	137.209
1294.05	142.535
1294.32	127.833
1294.59	136.284
1294.87	129.956
1295.14	148.927
1295.42	141.571
1295.69	136.355
1295.96	129.039
1296.24	132.3
1296.51	139.752
1296.79	129.196
1297.06	114.401
1297.33	129.185
1297.61	130.219
1297.88	122.796
1298.15	118.542
1298.43	128.015
1298.7	125.917
1298.97	123.794
1299.25	131.164
1299.52	126.923
1299.79	119.513
1300.07	119.511
1300.34	126.922
1300.62	106.873
1300.89	120.602
1301.16	118.484
1301.44	104.754
1301.71	120.596
1301.98	115.336
1302.25	113.241
1302.53	116.419
1302.8	112.196
1303.08	109.025
1303.35	112.187
1303.62	103.725
1303.9	114.265
1304.17	104.757
1304.44	116.374
1304.72	107.926
1304.99	110.036
1305.26	106.855
1305.54	113.169
1305.81	112.087
1306.08	108.896
1306.35	110.979
1306.63	103.574
1306.9	102.509
1307.18	104.617
1307.45	103.571
1307.72	103.574
1308	97.2435
1308.27	108.844
1308.54	112.014
1308.81	109.897
1309.09	110.957
1309.36	100.425
1309.63	102.548
1309.91	105.728
1310.18	100.461
1310.45	101.513
1310.73	94.1192
1311	99.395
1311.27	105.731
1311.55	98.348
1311.82	106.795
1312.09	99.4149
1312.37	96.2644
1312.64	96.2779
1312.91	99.4517
1313.18	95.2232
1313.46	96.2633
1313.73	98.3707
1314	102.584
1314.28	102.575
1314.55	100.464
1314.82	99.4134
1315.09	99.4227
1315.37	93.0996
1315.64	95.222
1315.91	92.0657
1316.18	98.4145
1316.46	103.691
1316.73	101.571
1317	97.342
1317.28	93.1144
1317.55	100.506
1317.82	92.0702
1318.09	91.0223
1318.37	99.4786
1318.64	95.2563
1318.91	101.597
1319.18	88.9188
1319.46	83.6334
1319.73	88.9114
1320	96.3021
1320.28	94.1951
1320.55	102.647
1320.82	93.1334
1321.09	93.1194
1321.37	99.434
1321.64	94.1266
1321.91	94.0963
1322.18	96.1891
1322.46	97.2162
1322.73	95.0928
1323	99.2975
1323.27	92.9553
1323.55	100.317
1323.82	92.9468
1324.09	92.9502
1324.36	92.9512
1324.64	102.438
1324.91	88.7307
1325.18	88.7275
1325.45	96.1139
1325.73	93.9802
1326	92.8835
1326.27	92.8295
1326.54	94.8677
1326.81	89.5788
1327.09	99.0395
1327.36	91.7052
1327.63	99.1365
1327.9	97.0641
1328.18	92.8823
1328.45	88.7007
1328.72	94.0079
1328.99	89.8172
1329.27	98.2656
1329.54	89.8132
1329.81	90.8771
1330.08	91.9276
1330.35	98.249
1330.63	96.126
1330.9	98.217
1331.17	85.5407
1331.44	87.6225
1331.71	97.0707
1331.99	99.134
1332.26	99.0991
1332.53	96.9657
1332.8	99.0402
1333.07	100.057
1333.35	92.6605
1333.62	91.5784
1333.89	96.8041
1334.16	98.8768
1334.43	90.4467
1334.71	94.6221
1334.98	86.2006
1335.25	99.8253
1335.52	92.4602
1335.79	90.3439
1336.07	87.1806
1336.34	94.5065
1336.61	88.2002
1336.88	93.4298
1337.15	99.7084
1337.43	90.2641
1337.7	95.4965
1337.97	95.4853
1338.24	99.6521
1338.51	95.4383
1338.78	102.755
1339.06	92.2654
1339.33	96.4432
1339.6	98.5338
1339.87	95.3954
1340.14	99.5888
1340.42	92.2597
1340.69	97.4988
1340.96	93.3122
1341.23	95.4041
1341.5	90.1631
1341.77	91.2031
1342.04	87.0041
1342.32	97.4581
1342.59	97.4364
1342.86	87.9926
1343.13	90.061
1343.4	96.3235
1343.67	96.3155
1343.95	81.6698
1344.22	91.0809
1344.49	82.715
1344.76	92.127
1345.03	99.4383
1345.3	90.0109
1345.58	99.3982
1345.85	85.7807
1346.12	96.206
1346.39	97.2171
1346.66	89.8607
1346.93	101.311
1347.2	100.236
1347.47	96.0325
1347.75	94.9625
1348.02	101.199
1348.29	87.6351
1348.56	95.9647
1348.83	92.8305
1349.1	93.8572
1349.37	93.839
1349.65	95.9031
1349.92	96.9263
1350.19	98.9905
1350.46	102.095
1350.73	101.035
1351	88.5223
1351.27	106.185
1351.54	97.8457
1351.81	107.179
1352.09	101.971
1352.36	95.7296
1352.63	104.06
1352.9	96.8002
1353.17	95.7885
1353.44	109.332
1353.71	101.091
1353.98	100.142
1354.25	104.213
1354.53	105.097
1354.8	108.105
1355.07	104.999
1355.34	103.968
1355.61	104.97
1355.88	97.68
1356.15	109.141
1356.42	103.953
1356.69	97.6977
1356.96	103.92
1357.24	109.103
1357.51	103.899
1357.78	102.846
1358.05	104.906
1358.32	104.887
1358.59	98.6404
1358.86	109
1359.13	111.052
1359.4	111.03
1359.67	99.6047
1359.94	109.961
1360.22	115.116
1360.49	99.5345
1360.76	105.723
1361.03	117.098
1361.3	116.052
1361.57	108.798
1361.84	122.259
1362.11	111.894
1362.38	110.844
1362.65	129.471
1362.92	123.245
1363.19	131.523
1363.46	132.566
1363.73	138.802
1364	135.711
1364.28	138.835
1364.55	144.012
1364.82	127.429
1365.09	138.808
1365.36	128.427
1365.63	122.186
1365.9	126.297
1366.17	128.337
1366.44	133.48
1366.71	134.483
1366.98	129.273
1367.25	136.463
1367.52	142.643
1367.79	135.394
1368.06	156.083
1368.33	170.565
1368.6	243.968
1368.87	312.212
1369.15	336.009
1369.41	289.509
1369.68	237.829
1369.95	186.106
1370.23	160.24
1370.5	145.75
1370.77	150.878
1371.04	131.227
1371.31	140.499
1371.58	140.46
1371.85	135.25
1372.12	139.324
1372.39	145.46
1372.66	143.346
1372.93	153.618
1373.2	159.776
1373.47	149.447
1373.74	149.428
1374.01	144.259
1374.28	154.55
1374.55	162.781
1374.82	158.649
1375.09	164.817
1375.36	162.736
1375.63	161.711
1375.9	163.791
1376.17	173.059
1376.44	161.735
1376.71	182.293
1376.98	176.069
1377.25	185.275
1377.52	168.734
1377.79	179.046
1378.06	176.003
1378.33	195.638
1378.6	195.734
1378.87	192.748
1379.14	209.276
1379.41	201.02
1379.68	213.363
1379.95	224.67
1380.22	209.166
1380.49	230.707
1380.76	242.872
1381.03	244.817
1381.3	251.924
1381.57	265.336
1381.84	280.691
1382.11	287.755
1382.38	315.349
1382.65	324.459
1382.92	373.614
1383.19	402.202
1383.46	429.787
1383.73	494.27
1384	550.577
1384.27	664.298
1384.54	810.931
1384.81	964.802
1385.08	1249.05
1385.34	1707.93
1385.61	2425.92
1385.88	3568.01
1386.15	5262.87
1386.42	7539.06
1386.69	9709.75
1386.96	10381.4
1387.23	9281.21
1387.5	6931.77
1387.77	4615.7
1388.04	2880.69
1388.31	1859.03
1388.58	1290.24
1388.85	938.676
1389.12	754.099
1389.39	609.805
1389.66	519.497
1389.93	465.132
1390.2	403.382
1390.46	364.089
1390.73	343.448
1391	313.701
1391.27	298.199
1391.54	273.576
1391.81	258.179
1392.08	251.973
1392.35	237.567
1392.62	234.442
1392.89	219.044
1393.16	209.799
1393.43	204.657
1393.7	203.612
1393.97	188.241
1394.23	199.483
1394.5	191.282
1394.77	176.944
1395.04	178.983
1395.31	176.955
1395.58	175.961
1395.85	179.052
1396.12	183.155
1396.39	168.818
1396.66	163.686
1396.93	164.69
1397.2	169.784
1397.46	165.66
1397.73	162.56
1398	166.635
1398.27	159.474
1398.54	157.438
1398.81	162.571
1399.08	164.628
1399.35	158.498
1399.62	151.361
1399.89	158.541
1400.16	166.744
1400.42	161.624
1400.69	159.599
1400.96	160.663
1401.23	154.537
1401.5	155.555
1401.77	162.742
1402.04	158.644
1402.31	158.698
1402.58	159.812
1402.84	161.961
1403.11	158.953
1403.38	170.295
1403.65	173.4
1403.92	175.455
1404.19	177.472
1404.46	179.424
1404.73	184.58
1404.99	204.056
1405.26	201.98
1405.53	218.355
1405.8	226.518
1406.07	252.11
1406.34	278.722
1406.61	299.193
1406.87	321.718
1407.14	356.583
1407.41	386.335
1407.68	435.576
1407.95	484.813
1408.22	524.829
1408.49	533.062
1408.76	516.688
1409.02	499.294
1409.29	430.626
1409.56	356.814
1409.83	312.735
1410.1	270.695
1410.37	247.102
1410.63	207.054
1410.9	189.566
1411.17	174.132
1411.44	162.819
1411.71	157.667
1411.98	137.156
1412.25	135.102
1412.51	140.244
1412.78	120.811
1413.05	121.912
1413.32	123.084
1413.59	120.076
1413.86	112.798
1414.12	113.674
1414.39	109.597
1414.66	112.748
1414.93	97.4003
1415.2	110.74
1415.47	101.503
1415.73	111.77
1416	93.2924
1416.27	104.595
1416.54	103.577
1416.81	99.4787
1417.07	95.3804
1417.34	90.2552
1417.61	94.375
1417.88	102.605
1418.15	89.2521
1418.42	91.3087
1418.68	95.4226
1418.95	96.4545
1419.22	96.4555
1419.49	89.263
1419.76	99.5293
1420.02	92.3184
1420.29	91.2723
1420.56	90.2279
1420.83	92.2629
1421.1	87.1094
1421.36	94.2781
1421.63	89.1375
1421.9	89.1423
1422.17	86.0856
1422.44	95.3577
1422.7	92.3074
1422.97	86.189
1423.24	88.3203
1423.51	83.2493
1423.77	94.3528
1424.04	90.0543
1424.31	91.1038
1424.58	87.9421
1424.85	86.9179
1425.11	86.9425
1425.38	84.9514
1425.65	80.8593
1425.92	82.8986
1426.19	81.901
1426.45	83.9463
1426.72	78.8028
1426.99	75.7059
1427.26	78.7599
1427.52	78.7366
1427.79	81.7772
1428.06	70.485
1428.33	74.5689
1428.59	76.6114
1428.86	64.3254
1429.13	80.7121
1429.4	65.3578
1429.67	70.4857
1429.93	73.5693
1430.2	76.6584
1430.47	72.5792
1430.74	66.4439
1431	67.4891
1431.27	70.596
1431.54	70.6199
1431.81	68.5789
1432.07	75.7634
1432.34	69.5919
1432.61	65.4712
1432.87	72.6415
1433.14	61.3383
1433.41	69.5159
1433.68	68.4612
1433.95	64.3364
1434.21	68.4164
1434.48	70.457
1434.75	69.465
1435.01	63.3312
1435.28	67.4322
1435.55	62.3086
1435.82	64.3561
1436.08	64.3526
1436.35	66.3974
1436.62	60.245
1436.89	64.3368
1437.15	70.4763
1437.42	66.3726
1437.69	58.1762
1437.95	58.1692
1438.22	66.3587
1438.49	63.2891
1438.76	60.2254
1439.02	58.1816
1439.29	60.2319
1439.56	58.1856
1439.82	68.4412
1440.09	61.2819
1440.36	59.2482
1440.63	58.2298
1440.89	58.2329
1441.16	56.1825
1441.43	65.4148
1441.69	60.2822
1441.96	59.2463
1442.23	58.2155
1442.49	57.2016
1442.76	58.228
1443.03	64.3932
1443.3	54.1292
1443.56	62.3223
1443.83	60.2624
1444.1	54.1051
1444.36	61.2782
1444.63	59.2312
1444.9	61.2988
1445.16	61.3133
1445.43	56.2023
1445.7	52.0932
1445.97	55.1654
1446.23	60.2892
1446.5	54.1292
1446.77	57.2015
1447.03	52.0687
1447.3	52.064
1447.57	56.1598
1447.83	58.2027
1448.1	59.2215
1448.37	49.994
1448.63	53.0783
1448.9	47.9618
1449.17	56.1695
1449.43	47.963
1449.7	56.1629
1449.97	54.1041
1450.23	57.1706
1450.5	57.1606
1450.77	54.08
1451.03	54.0752
1451.3	48.9458
1451.57	57.1396
1451.83	50.985
1452.1	53.0286
1452.37	53.024
1452.63	54.0457
1452.9	51.9968
1453.17	50.9742
1453.43	52.0042
1453.7	49.959
1453.97	49.9588
1454.23	52.0043
1454.5	49.9514
1454.77	46.8767
1455.03	49.9503
1455.3	53.0224
1455.56	42.7719
1455.83	48.9202
1456.1	49.953
1456.36	47.9073
1456.63	52.0064
1456.9	52.0014
1457.16	53.0166
1457.43	49.9339
1457.7	51.9785
1457.96	50.9501
1458.23	43.7768
1458.49	50.9471
1458.76	42.7525
1459.03	44.8032
1459.29	45.8293
1459.56	40.7074
1459.82	45.8307
1460.09	50.9511
1460.36	51.9717
1460.62	47.8696
1460.89	49.9137
1461.16	47.8591
1461.42	42.7317
1461.69	50.9174
1461.95	48.8617
1462.22	45.7817
1462.49	43.7257
1462.75	47.8093
1463.02	42.6828
1463.28	44.7179
1463.55	50.8422
1463.82	46.7411
1464.08	46.7388
1464.35	45.7302
1464.61	47.7972
1464.88	41.6726
1465.15	43.7397
1465.41	42.6819
1465.68	44.6458
1465.94	45.6289
1466.21	40.5213
1466.48	45.6372
1466.74	44.6115
1467.01	39.4897
1467.27	42.5441
1467.54	43.5678
1467.8	47.6451
1468.07	46.6208
1468.34	45.598
1468.6	44.5765
1468.87	37.4345
1469.13	45.5915
1469.4	45.5862
1469.67	45.5799
1469.93	41.4921
1470.2	39.4429
1470.46	39.4346
1470.73	44.5235
1470.99	47.5742
1471.26	40.4382
1471.53	42.4693
1471.79	45.5156
1472.06	40.4168
1472.32	44.4864
1472.59	42.4474
1472.85	48.5549
1473.12	44.48
1473.39	40.4033
1473.65	46.5046
1473.92	42.4255
1474.18	40.3842
1474.45	40.3806
1474.71	41.3974
1474.98	41.4004
1475.24	39.3669
1475.51	39.3667
1475.78	40.3825
1476.04	40.378
1476.31	44.4422
1476.57	36.2972
1476.84	41.3802
1477.1	41.3728
1477.37	41.3653
1477.63	39.327
1477.9	39.3249
1478.16	38.3062
1478.43	37.2842
1478.69	42.3592
1478.96	43.3687
1479.22	44.3779
1479.49	40.3048
1479.76	40.2964
1480.02	39.2711
1480.29	40.2775
1480.55	40.2622
1480.82	41.2646
1481.08	42.2704
1481.35	36.178
1481.61	41.2433
1481.88	41.2463
1482.14	47.3406
1482.41	38.2144
1482.67	44.3123
1482.94	38.227
1483.2	41.2719
1483.47	38.2301
1483.73	46.3557
1484	39.2468
1484.26	43.3064
1484.53	43.288
1484.79	39.205
1485.06	40.1753
1485.32	38.0956
1485.59	44.1456
1485.85	41.078
1486.12	40.1603
1486.38	37.1309
1486.65	40.1857
1486.91	38.1165
1487.18	42.1884
1487.44	35.1004
1487.71	34.076
1487.97	37.1059
1488.24	45.2018
1488.5	46.2062
1488.77	40.1211
1489.03	36.062
1489.3	38.0783
1489.56	35.0378
1489.83	39.0809
1490.09	39.0774
1490.36	40.088
1490.62	41.0983
1490.89	42.1041
1491.15	39.0608
1491.42	41.0746
1491.68	37.0257
1491.95	42.0782
1492.21	45.1103
1492.48	42.0784
1492.74	43.0873
1493	40.0513
1493.27	42.071
1493.53	37.0155
1493.8	34.9904
1494.06	40.0424
1494.33	40.0422
1494.59	38.0223
1494.86	38.0247
1495.12	36.0005
1495.39	41.0479
1495.65	40.0244
1495.92	44.0497
1496.18	41.0065
1496.45	44.0272
1496.71	38.9726
1496.97	39.9764
1497.24	36.9422
1497.5	38.9596
1497.77	41.9863
1498.03	37.9463
1498.3	31.8894
1498.56	37.9441
1498.82	40.9719
1499.09	40.9725
1499.35	37.9456
1499.62	36.938
1499.88	35.9311
1500.15	38.9621
1500.41	36.9435
1500.68	41.9904
1500.94	40.9786
1501.2	40.9766
1501.47	40.9713
1501.73	35.9164
1502	39.95
1502.26	36.9206
1502.52	37.9275
1502.79	43.9771
1503.05	38.9229
1503.32	35.8885
1503.58	40.9258
1503.85	38.901
1504.11	41.925
1504.37	36.8863
1504.64	39.9125
1504.9	35.8783
1505.17	40.9179
1505.43	39.9045
1505.7	35.8649
1505.96	35.8539
1506.22	32.8176
1506.49	40.8741
1506.75	38.8572
1507.02	41.8806
1507.28	36.8478
1507.54	40.8791
1507.81	37.8571
1508.07	35.8406
1508.34	33.8221
1508.6	39.8649
1508.86	44.9029
1509.13	37.8503
1509.39	38.8578
1509.66	32.8106
1509.92	36.8402
1510.18	35.8358
1510.45	33.8218
1510.71	35.8297
1510.98	40.859
1511.24	37.827
1511.5	34.7948
1511.77	40.8189
1512.03	39.7904
1512.29	35.7466
1512.56	40.7529
1512.82	40.7347
1513.08	38.7146
1513.35	34.6884
1513.61	41.7081
1513.88	39.6962
1514.14	32.6765
1514.4	35.7019
1514.67	40.7274
1514.93	37.7086
1515.2	42.7201
1515.46	35.6802
1515.72	38.6813
1515.99	35.6584
1516.25	35.6468
1516.51	36.6413
1516.78	37.6396
1517.04	38.6385
1517.3	35.6272
1517.57	39.6359
1517.83	36.6279
1518.09	36.6298
1518.36	39.6445
1518.62	37.64
1518.88	37.642
1519.15	37.6434
1519.41	36.6429
1519.67	36.645
1519.94	38.6527
1520.2	36.6445
1520.47	42.6595
1520.73	38.6431
1520.99	35.6351
1521.26	41.6576
1521.52	35.6404
1521.78	40.658
1522.05	35.6387
1522.31	41.6544
1522.57	35.6298
1522.84	39.6369
1523.1	41.6379
1523.36	37.6189
1523.62	37.6067
1523.89	38.5929
1524.15	39.5835
1524.41	31.5612
1524.68	37.5635
1524.94	39.5594
1525.2	32.5532
1525.47	35.5584
1525.73	36.5605
1525.99	38.5685
1526.26	38.575
1526.52	35.5784
1526.78	33.5804
1527.05	36.5896
1527.31	38.5927
1527.57	35.5796
1527.84	37.5808
1528.1	41.5852
1528.36	39.5769
1528.63	37.5676
1528.89	37.5627
1529.15	37.5585
1529.41	38.5574
1529.68	32.5461
1529.94	36.5494
1530.2	35.5413
1530.47	36.5403
1530.73	37.5444
