#Acq. time (s)=	30
#Accumulations=	2
#Range (cm-¹)=	1200...2365
#Windows=	3
#Auto scanning=	Off
#Autofocus=	Off
#Macrospot=	Off
#AutoExposure=	Off
#Spike filter=	Multiple accum.
#Delay time (s)=	2
#Binning=	1
#Readout mode=	Signal
#DeNoise=	Off
#ICS correction=	On
#Dark correction=	Off
#Inst. Process=	Off
#Detector Gain=	Best Dynamic
#Detector ADC=	50 kHz HS
#Detector temperature (°C)=	-60.09
#Instrument=	LabRAM HR Evol
#Detector=	SIN-EM FIVIS
#Objective=	x100_VIS_LWD
#Grating=	1800 (450-850nm)
#ND Filter=	100%
#Laser=	532nm_Edge
#Hole=	100.021
#Temperature=	0
#Range=	Visible
#StageXY=	75x50mm Scan+
#StageZ=	Z motor
#X (µm)=	0
#Y (µm)=	0
#Z (µm)=	-43.7
#Full time(mm:ss)=	3:22
#Project=	21_11_26
#Sample=	BU19(2)w
#Site=	
#Title=	BU19(2)w-A-FF2-FI03-V_1800 (450-850nm)_532nm_Edge_100%_x100_VIS_LWD_H100um_30sX2
#Remark=	
#Date=	26.11.2021 15:16
#Acquired=	26.11.2021 15:16:39
1202.72	358.652
1203	340.835
1203.28	330.149
1203.56	317.005
1203.84	349.011
1204.11	332.686
1204.39	331.454
1204.67	348.643
1204.95	336.831
1205.23	343.188
1205.5	317.242
1205.78	337.492
1206.06	335.16
1206.34	334.972
1206.61	336.934
1206.89	332.46
1207.17	325.846
1207.45	333.191
1207.73	320.228
1208	326.548
1208.28	339.313
1208.56	324.233
1208.84	324.109
1209.11	316.506
1209.39	328.16
1209.67	336.646
1209.95	334.467
1210.23	317.306
1210.5	330.04
1210.78	329.875
1211.06	320.104
1211.34	333.853
1211.61	328.363
1211.89	321.837
1212.17	320.614
1212.45	321.53
1212.72	316.086
1213	313.836
1213.28	330.757
1213.56	329.598
1213.83	330.594
1214.11	327.303
1214.39	331.55
1214.67	342.182
1214.94	326.189
1215.22	338.935
1215.5	319.732
1215.78	310.107
1216.05	340.925
1216.33	302.499
1216.61	323.64
1216.89	338.36
1217.16	320.127
1217.44	308.313
1217.72	333.692
1218	314.452
1218.27	333.463
1218.55	315.316
1218.83	347.061
1219.1	324.708
1219.38	306.62
1219.66	322.479
1219.94	338.324
1220.21	325.509
1220.49	319.107
1220.77	307.414
1221.04	320.097
1221.32	331.702
1221.6	325.254
1221.88	319.868
1222.15	311.269
1222.43	324.892
1222.71	321.539
1222.98	327.7
1223.26	332.805
1223.54	315.708
1223.81	314.492
1224.09	315.411
1224.37	329.002
1224.65	326.782
1224.92	319.301
1225.2	316.064
1225.48	331.861
1225.76	313.928
1226.03	335.051
1226.31	327.676
1226.59	319.183
1226.86	323.356
1227.14	332.768
1227.42	328.461
1227.69	325.099
1227.97	330.026
1228.25	310.84
1228.52	328.529
1228.8	312.413
1229.08	319.502
1229.35	305.789
1229.63	326.538
1229.91	311.376
1230.18	321.599
1230.46	319.159
1230.74	320.07
1231.01	331.665
1231.29	316.703
1231.57	322.353
1231.84	333.944
1232.12	327.605
1232.4	308.653
1232.67	319.095
1232.95	315.908
1233.23	332.672
1233.5	321.057
1233.78	323.122
1234.06	309.456
1234.33	314.71
1234.61	310.512
1234.89	309.48
1235.16	308.453
1235.44	315.809
1235.71	308.453
1235.99	310.567
1236.27	312.668
1236.54	334.715
1236.82	328.338
1237.1	315.646
1237.37	314.498
1237.65	318.566
1237.93	315.273
1238.2	310.933
1238.48	326.533
1238.76	313.799
1239.03	303.196
1239.31	319.893
1239.58	322.967
1239.86	327.099
1240.14	321.809
1240.41	307.096
1240.69	315.453
1240.97	324.868
1241.24	302.845
1241.52	321.699
1241.79	324.787
1242.07	334.132
1242.35	323.587
1242.62	318.326
1242.9	299.455
1243.18	314.145
1243.45	306.822
1243.73	321.466
1244	315.152
1244.28	304.663
1244.56	317.212
1244.83	314.019
1245.11	316.057
1245.39	319.104
1245.66	308.519
1245.94	320.951
1246.21	316.628
1246.49	313.415
1246.76	331.157
1247.04	299.73
1247.32	321.678
1247.59	305.924
1247.87	315.31
1248.14	315.248
1248.42	334.978
1248.7	311.875
1248.97	320.199
1249.25	320.192
1249.52	298.223
1249.8	330.599
1250.08	320.102
1250.35	335.767
1250.63	321.029
1250.9	307.328
1251.18	321.863
1251.45	329.087
1251.73	333.18
1252.01	303.846
1252.28	321.517
1252.56	309.944
1252.83	301.506
1253.11	335.859
1253.39	304.459
1253.66	332.576
1253.94	320.028
1254.21	328.402
1254.49	321.131
1254.76	323.263
1255.04	319.087
1255.31	305.485
1255.59	303.394
1255.87	324.252
1256.14	316.899
1256.42	322.108
1256.69	316.885
1256.97	331.528
1257.24	308.537
1257.52	335.651
1257.79	329.309
1258.07	332.385
1258.35	309.36
1258.62	337.497
1258.9	309.244
1259.17	315.405
1259.45	332.069
1259.72	327.906
1260	308.092
1260.27	317.594
1260.55	321.66
1260.82	324.686
1261.1	318.279
1261.37	331.735
1261.65	332.696
1261.92	342.105
1262.2	342.387
1262.48	373.136
1262.75	362.885
1263.02	355.989
1263.3	372.218
1263.58	374.103
1263.85	366.098
1264.13	364.266
1264.4	338.449
1264.68	342.779
1264.95	340.442
1265.23	334.059
1265.5	325.67
1265.78	332.93
1266.05	330.751
1266.33	326.543
1266.6	307.731
1266.88	323.422
1267.15	316.14
1267.43	322.46
1267.7	326.704
1267.98	324.682
1268.25	319.532
1268.53	334.306
1268.8	314.504
1269.08	348.06
1269.35	323.994
1269.63	320.865
1269.9	318.723
1270.18	327.005
1270.45	320.593
1270.73	333.06
1271	325.624
1271.28	330.772
1271.55	315.025
1271.83	318.095
1272.1	319.139
1272.38	326.513
1272.65	315.064
1272.93	330.871
1273.2	322.551
1273.47	326.802
1273.75	321.623
1274.03	316.44
1274.3	337.473
1274.57	322.819
1274.85	338.542
1275.12	310.18
1275.4	323.79
1275.67	345.829
1275.95	328.024
1276.22	310.216
1276.5	327.06
1276.77	322.894
1277.05	323.981
1277.32	325.051
1277.6	318.803
1277.87	320.957
1278.14	334.671
1278.42	341.019
1278.69	333.698
1278.97	343.233
1279.24	344.315
1279.52	343.294
1279.79	334.832
1280.07	352.66
1280.34	352.59
1280.61	369.376
1280.89	360.965
1281.16	394.634
1281.44	422.063
1281.71	456.902
1281.99	519.044
1282.26	568.478
1282.53	690.619
1282.81	788.585
1283.08	929.48
1283.36	1036.31
1283.63	1059.55
1283.91	1019.2
1284.18	834.21
1284.45	729.494
1284.73	589.818
1285	504.547
1285.28	418.106
1285.55	396.809
1285.83	372.428
1286.1	362.933
1286.37	336.659
1286.65	341.895
1286.92	330.221
1287.2	324.926
1287.47	337.512
1287.75	332.172
1288.02	340.505
1288.29	347.807
1288.57	337.253
1288.84	325.66
1289.12	320.395
1289.39	337.259
1289.66	320.449
1289.94	320.483
1290.21	321.579
1290.49	337.41
1290.76	324.741
1291.03	318.359
1291.31	324.633
1291.58	319.335
1291.86	322.465
1292.13	328.745
1292.4	300.285
1292.68	305.545
1292.95	318.138
1293.22	301.236
1293.5	319.13
1293.77	326.584
1294.05	315.103
1294.32	337.356
1294.59	309.952
1294.87	308.872
1295.14	324.64
1295.42	318.346
1295.69	315.292
1295.96	319.665
1296.24	307.196
1296.51	312.585
1296.79	317.877
1297.06	309.403
1297.33	308.286
1297.61	308.204
1297.88	316.565
1298.15	315.409
1298.43	302.625
1298.7	305.803
1298.97	309.976
1299.25	310.953
1299.52	300.326
1299.79	298.138
1300.07	316.053
1300.34	321.362
1300.62	319.258
1300.89	307.626
1301.16	314.976
1301.44	310.714
1301.71	313.871
1301.98	306.507
1302.25	300.193
1302.53	312.868
1302.8	324.471
1303.08	307.539
1303.35	311.717
1303.62	306.375
1303.9	291.508
1304.17	299.919
1304.44	307.291
1304.72	307.265
1304.99	323.074
1305.26	306.114
1305.54	301.809
1305.81	310.155
1306.08	314.278
1306.35	286.745
1306.63	308.809
1306.9	300.318
1307.18	318.218
1307.45	306.619
1307.72	325.588
1308	315.009
1308.27	311.816
1308.54	300.205
1308.81	312.816
1309.09	322.3
1309.36	305.447
1309.63	314.961
1309.91	305.485
1310.18	309.709
1310.45	313.896
1310.73	318.07
1311	308.546
1311.27	299.036
1311.55	303.247
1311.82	309.568
1312.09	316.956
1312.37	321.209
1312.64	318.063
1312.91	314.892
1313.18	306.404
1313.46	297.882
1313.73	315.792
1314	316.791
1314.28	307.241
1314.55	302.992
1314.82	311.429
1315.09	307.212
1315.37	322.007
1315.64	320.964
1315.91	288.242
1316.18	314.661
1316.46	329.408
1316.73	312.461
1317	317.702
1317.28	306.05
1317.55	315.527
1317.82	301.817
1318.09	306.046
1318.37	310.265
1318.64	300.744
1318.91	293.33
1319.18	298.587
1319.46	289.043
1319.73	303.794
1320	307.982
1320.28	293.187
1320.55	307.955
1320.82	304.741
1321.09	294.107
1321.37	298.236
1321.64	307.624
1321.91	320.162
1322.18	288.42
1322.46	305.187
1322.73	323.049
1323	310.321
1323.27	302.865
1323.55	296.452
1323.82	289.081
1324.09	316.483
1324.36	305.917
1324.64	300.609
1324.91	297.424
1325.18	316.368
1325.45	297.382
1325.73	300.439
1326	309.756
1326.27	296.907
1326.54	311.396
1326.81	298.65
1327.09	302.808
1327.36	306.043
1327.63	311.491
1327.9	299.99
1328.18	313.773
1328.45	320.197
1328.72	315.027
1328.99	290.84
1329.27	301.392
1329.54	322.426
1329.81	303.444
1330.08	326.614
1330.35	307.571
1330.63	305.394
1330.9	294.763
1331.17	291.501
1331.44	293.492
1331.71	301.776
1331.99	301.612
1332.26	309.9
1332.53	304.522
1332.8	326.496
1333.07	294.797
1333.35	300.97
1333.62	297.688
1333.89	311.228
1334.16	299.553
1334.43	316.245
1334.71	300.382
1334.98	293.981
1335.25	304.385
1335.52	298.001
1335.79	320.997
1336.07	315.667
1336.34	297.757
1336.61	302.927
1336.88	307.052
1337.15	296.505
1337.43	302.738
1337.7	304.781
1337.97	316.248
1338.24	305.662
1338.51	300.325
1338.78	293.968
1339.06	302.268
1339.33	302.207
1339.6	300.077
1339.87	295.874
1340.14	303.194
1340.42	289.561
1340.69	295.829
1340.96	301.049
1341.23	307.299
1341.5	284.22
1341.77	300.926
1342.04	302.959
1342.32	307.069
1342.59	297.553
1342.86	306.862
1343.13	310.936
1343.4	303.543
1343.67	303.492
1343.95	289.859
1344.22	294.013
1344.49	300.267
1344.76	304.424
1345.03	297.048
1345.3	302.198
1345.58	295.828
1345.85	292.569
1346.12	303.958
1346.39	298.602
1346.66	321.386
1346.93	320.209
1347.2	296.087
1347.47	302.222
1347.75	295.851
1348.02	294.725
1348.29	293.617
1348.56	301.901
1348.83	289.346
1349.1	303.86
1349.37	321.485
1349.65	292.227
1349.92	312.973
1350.19	298.31
1350.46	323.214
1350.73	320.002
1351	301.163
1351.27	294.815
1351.54	316.581
1351.81	294.632
1352.09	303.94
1352.36	313.266
1352.63	291.439
1352.9	292.518
1353.17	297.787
1353.44	301.972
1353.71	298.047
1353.98	293.097
1354.25	290.699
1354.53	303.737
1354.8	303.385
1355.07	310.667
1355.34	297.158
1355.61	310.526
1355.88	310.441
1356.15	293.901
1356.42	293.898
1356.69	299
1356.96	297.903
1357.24	300.965
1357.51	312.331
1357.78	303.955
1358.05	303.878
1358.32	305.873
1358.59	299.561
1358.86	300.519
1359.13	297.316
1359.4	312.788
1359.67	316.863
1359.94	295.017
1360.22	310.461
1360.49	308.265
1360.76	306.076
1361.03	298.738
1361.3	304.901
1361.57	316.264
1361.84	300.687
1362.11	294.428
1362.38	315.077
1362.65	300.518
1362.92	293.212
1363.19	322.165
1363.46	319.053
1363.73	299.407
1364	307.706
1364.28	313.934
1364.55	294.222
1364.82	316.963
1365.09	304.472
1365.36	295.069
1365.63	319.82
1365.9	314.539
1366.17	308.228
1366.44	308.129
1366.71	296.649
1366.98	305.838
1367.25	301.566
1367.52	301.49
1367.79	312.8
1368.06	321.085
1368.33	311.781
1368.6	329.347
1368.87	323.139
1369.15	354.148
1369.41	334.507
1369.68	302.45
1369.95	314.792
1370.23	293.019
1370.5	306.394
1370.77	302.15
1371.04	310.348
1371.31	313.361
1371.58	298.784
1371.85	327.561
1372.12	307.79
1372.39	309.703
1372.66	314.719
1372.93	328.009
1373.2	305.245
1373.47	316.513
1373.74	289.65
1374.01	307.11
1374.28	319.42
1374.55	296.703
1374.82	316.23
1375.09	312.057
1375.36	315.079
1375.63	313.005
1375.9	319.201
1376.17	312.985
1376.44	316.068
1376.71	318.016
1376.98	314.819
1377.25	315.712
1377.52	315.548
1377.79	317.621
1378.06	326.944
1378.33	323.964
1378.6	315.862
1378.87	309.833
1379.14	325.327
1379.41	317.04
1379.68	305.63
1379.95	321.018
1380.22	316.799
1380.49	331.05
1380.76	320.452
1381.03	342.903
1381.3	343.77
1381.57	320.146
1381.84	321.061
1382.11	328.072
1382.38	333.011
1382.65	345.16
1382.92	345.002
1383.19	326.367
1383.46	338.554
1383.73	342.526
1384	369.095
1384.27	373.114
1384.54	375.151
1384.81	379.26
1385.08	418.275
1385.34	472.736
1385.61	523.185
1385.88	634.162
1386.15	778.018
1386.42	1117.98
1386.69	1458.15
1386.96	1812.63
1387.23	1924.54
1387.5	1614.04
1387.77	1152.99
1388.04	804.319
1388.31	609.63
1388.58	492.666
1388.85	438.089
1389.12	400.652
1389.39	371.113
1389.66	348.528
1389.93	351.625
1390.2	355.581
1390.46	328.594
1390.73	322.289
1391	325.326
1391.27	311.836
1391.54	327.154
1391.81	319.923
1392.08	312.647
1392.35	318.681
1392.62	317.556
1392.89	332.831
1393.16	311.257
1393.43	315.288
1393.7	299.875
1393.97	306.983
1394.23	304.883
1394.5	308.928
1394.77	305.811
1395.04	292.47
1395.31	307.827
1395.58	325.254
1395.85	307.867
1396.12	293.525
1396.39	303.725
1396.66	294.46
1396.93	294.396
1397.2	328.098
1397.46	308.568
1397.73	293.138
1398	305.356
1398.27	291.006
1398.54	313.504
1398.81	317.609
1399.08	285.891
1399.35	290.996
1399.62	298.185
1399.89	281.819
1400.16	304.339
1400.42	313.521
1400.69	294.092
1400.96	294.144
1401.23	304.395
1401.5	315.621
1401.77	289.007
1402.04	326.871
1402.31	297.252
1402.58	309.705
1402.84	298.597
1403.11	308.972
1403.38	321.368
1403.65	294.702
1403.92	291.599
1404.19	307.932
1404.46	300.541
1404.73	312.874
1404.99	313.845
1405.26	312.754
1405.53	313.695
1405.8	305.403
1406.07	310.447
1406.34	329.845
1406.61	301.082
1406.87	351.252
1407.14	337.919
1407.41	344.069
1407.68	343.049
1407.95	367.65
1408.22	373.798
1408.49	371.744
1408.76	381.996
1409.02	355.337
1409.29	376.883
1409.56	346.119
1409.83	315.35
1410.1	334.833
1410.37	307.111
1410.63	295.739
1410.9	309.981
1411.17	309.853
1411.44	311.801
1411.71	306.595
1411.98	301.404
1412.25	297.269
1412.51	292.164
1412.78	299.402
1413.05	302.652
1413.32	300.958
1413.59	300.1
1413.86	293.67
1414.12	309.636
1414.39	288.148
1414.66	294.485
1414.93	293.579
1415.2	300.719
1415.47	275.038
1415.73	307.867
1416	299.638
1416.27	292.451
1416.54	303.75
1416.81	298.621
1417.07	286.303
1417.34	309.941
1417.61	292.489
1417.88	291.469
1418.15	300.71
1418.42	290.415
1418.68	300.678
1418.95	267.783
1419.22	292.425
1419.49	300.628
1419.76	313.927
1420.02	307.675
1420.29	306.557
1420.56	292.092
1420.83	289.949
1421.1	283.697
1421.36	304.145
1421.63	295.879
1421.9	295.872
1422.17	299.011
1422.44	298.066
1422.7	297.12
1422.97	303.433
1423.24	295.454
1423.51	299.826
1423.77	288.772
1424.04	279.9
1424.31	302.516
1424.58	289.886
1424.85	281.667
1425.11	281.728
1425.38	284.988
1425.65	293.207
1425.92	284.934
1426.19	287.065
1426.45	297.276
1426.72	276.681
1426.99	288.884
1427.26	294.924
1427.52	285.583
1427.79	305.921
1428.06	292.476
1428.33	288.304
1428.59	275.973
1428.86	276.975
1429.13	271.848
1429.4	280.039
1429.67	286.193
1429.93	294.41
1430.2	282.158
1430.47	288.362
1430.74	274.052
1431	282.319
1431.27	285.504
1431.54	296.872
1431.81	282.533
1432.07	285.588
1432.34	293.716
1432.61	295.668
1432.87	289.44
1433.14	293.422
1433.41	284.053
1433.68	281.849
1433.95	254.048
1434.21	286.725
1434.48	269.261
1434.75	293.958
1435.01	266.332
1435.28	285.789
1435.55	278.592
1435.82	286.758
1436.08	303.113
1436.35	292.821
1436.62	271.259
1436.89	285.548
1437.15	277.298
1437.42	292.612
1437.69	284.383
1437.95	297.638
1438.22	273.018
1438.49	277.104
1438.76	286.343
1439.02	281.224
1439.29	291.453
1439.56	279.15
1439.82	293.518
1440.09	273.065
1440.36	275.173
1440.63	291.591
1440.89	289.534
1441.16	288.488
1441.43	293.608
1441.69	298.686
1441.96	294.506
1442.23	280.1
1442.49	276.035
1442.76	290.374
1443.03	278.103
1443.3	295.474
1443.56	300.521
1443.83	290.197
1444.1	274.764
1444.36	287.029
1444.63	277.796
1444.9	286.06
1445.16	293.29
1445.43	280.027
1445.7	287.158
1445.97	290.181
1446.23	294.233
1446.5	278.795
1446.77	285.926
1447.03	289.979
1447.3	287.878
1447.57	275.517
1447.83	292.883
1448.1	287.7
1448.37	286.647
1448.63	273.346
1448.9	281.592
1449.17	292.868
1449.43	291.812
1449.7	281.504
1449.97	278.363
1450.23	276.238
1450.5	283.339
1450.77	279.187
1451.03	277.088
1451.3	266.79
1451.57	267.764
1451.83	281.031
1452.1	291.222
1452.37	268.632
1452.63	271.667
1452.9	297.259
1453.17	276.757
1453.43	277.791
1453.7	277.794
1453.97	281.87
1454.23	277.724
1454.5	282.806
1454.77	271.508
1455.03	291.977
1455.3	287.844
1455.56	285.748
1455.83	263.187
1456.1	286.782
1456.36	265.262
1456.63	265.236
1456.9	283.633
1457.16	271.259
1457.43	280.407
1457.7	279.334
1457.96	265.971
1458.23	283.348
1458.49	284.349
1458.76	304.819
1459.03	269.98
1459.29	272.017
1459.56	300.689
1459.82	291.449
1460.09	282.19
1460.36	267.802
1460.62	262.633
1460.89	289.217
1461.16	297.351
1461.42	274.753
1461.69	276.737
1461.95	273.596
1462.22	276.592
1462.49	280.605
1462.75	291.774
1463.02	286.564
1463.28	285.444
1463.55	279.209
1463.82	281.164
1464.08	277.038
1464.35	289.378
1464.61	281.311
1464.88	275.253
1465.15	276.391
1465.41	278.182
1465.68	273.522
1465.94	279.377
1466.21	280.342
1466.48	287.555
1466.74	279.334
1467.01	277.134
1467.27	264.826
1467.54	268.909
1467.8	271.925
1468.07	275.958
1468.34	291.219
1468.6	259.566
1468.87	298.295
1469.13	272.751
1469.4	286.973
1469.67	277.731
1469.93	285.804
1470.2	258.183
1470.46	289.697
1470.73	271.285
1470.99	272.243
1471.26	270.158
1471.53	278.241
1471.79	277.136
1472.06	275.032
1472.32	277.021
1472.59	284.111
1472.85	258.62
1473.12	293.205
1473.39	264.647
1473.65	272.722
1473.92	278.759
1474.18	272.589
1474.45	274.577
1474.71	279.638
1474.98	268.444
1475.24	284.722
1475.51	285.718
1475.78	269.397
1476.04	272.397
1476.31	278.436
1476.57	280.415
1476.84	268.153
1477.1	280.287
1477.37	284.279
1477.63	272.023
1477.9	285.207
1478.16	285.172
1478.43	281.043
1478.69	302.306
1478.96	286.985
1479.22	279.798
1479.49	285.817
1479.76	280.652
1480.02	280.559
1480.29	287.578
1480.55	274.242
1480.82	268.039
1481.08	275.058
1481.35	269.931
1481.61	286.086
1481.88	298.262
1482.14	279.008
1482.41	273.962
1482.67	285.164
1482.94	282.14
1483.2	268.914
1483.47	275.016
1483.73	275.01
1484	287.17
1484.26	280.024
1484.53	278.86
1484.79	273.592
1485.06	270.206
1485.32	286.985
1485.59	273.657
1485.85	274.41
1486.12	265.96
1486.38	290.338
1486.65	286.375
1486.91	262.726
1487.18	292.231
1487.44	289.213
1487.71	274.91
1487.97	274.814
1488.24	255.504
1488.5	272.645
1488.77	281.664
1489.03	279.539
1489.3	288.563
1489.56	280.407
1489.83	268.213
1490.09	278.283
1490.36	290.394
1490.62	289.351
1490.89	288.275
1491.15	260.88
1491.42	275.964
1491.68	265.798
1491.95	281.934
1492.21	268.764
1492.48	275.827
1492.74	278.824
1493	277.77
1493.27	288.853
1493.53	273.662
1493.8	269.571
1494.06	281.663
1494.33	272.543
1494.59	282.645
1494.86	283.655
1495.12	268.452
1495.39	276.464
1495.65	270.286
1495.92	272.173
1496.18	269.03
1496.45	260.872
1496.71	284.026
1496.97	267.81
1497.24	285.91
1497.5	291.936
1497.77	280.805
1498.03	293.88
1498.3	284.763
1498.56	259.509
1498.82	274.627
1499.09	282.685
1499.35	274.597
1499.62	275.599
1499.88	273.581
1500.15	289.732
1500.41	283.66
1500.68	288.679
1500.94	278.546
1501.2	295.671
1501.47	273.403
1501.73	271.3
1502	290.428
1502.26	273.237
1502.52	284.299
1502.79	274.152
1503.05	287.176
1503.32	282.044
1503.58	277.947
1503.85	265.766
1504.11	274.812
1504.37	280.865
1504.64	292.954
1504.9	286.879
1505.17	276.754
1505.43	275.687
1505.7	289.728
1505.96	286.589
1506.22	279.398
1506.49	283.38
1506.75	293.418
1507.02	275.27
1507.28	274.28
1507.54	283.334
1507.81	280.298
1508.07	263.138
1508.34	268.129
1508.6	284.208
1508.86	280.157
1509.13	293.241
1509.39	288.18
1509.66	276.057
1509.92	298.197
1510.18	287.121
1510.45	292.154
1510.71	299.12
1510.98	264.777
1511.24	284.827
1511.5	287.734
1511.77	283.553
1512.03	275.316
1512.29	300.267
1512.56	263.899
1512.82	275.804
1513.08	281.724
1513.35	272.59
1513.61	278.529
1513.88	275.465
1514.14	294.587
1514.4	287.654
1514.67	281.631
1514.93	281.569
1515.2	265.404
1515.46	282.366
1515.72	280.253
1515.99	274.112
1516.25	290.044
1516.51	282.93
1516.78	277.859
1517.04	279.813
1517.3	268.737
1517.57	276.723
1517.83	270.686
1518.09	264.665
1518.36	284.749
1518.62	263.677
1518.88	302.79
1519.15	272.69
1519.41	276.703
1519.67	273.69
1519.94	276.688
1520.2	262.609
1520.47	293.655
1520.73	265.518
1520.99	285.572
1521.26	287.583
1521.52	284.575
1521.78	279.542
1522.05	270.473
1522.31	281.455
1522.57	275.375
1522.84	256.253
1523.1	277.259
1523.36	280.19
1523.62	270.046
1523.89	299.963
1524.15	268.792
1524.41	289.737
1524.68	274.632
1524.94	281.567
1525.2	277.57
1525.47	273.552
1525.73	279.546
1525.99	270.549
1526.26	284.604
1526.52	270.632
1526.78	270.667
1527.05	288.708
1527.31	273.638
1527.57	271.564
1527.84	264.502
1528.1	290.505
1528.36	282.436
1528.63	279.366
1528.89	268.287
1529.15	289.269
1529.41	272.198
1529.68	280.179
1529.94	273.121
1530.2	289.068
1530.47	285.022
1530.73	274.008
1530.99	272.04
