#Acq. time (s)=	30
#Accumulations=	2
#Range (cm-¹)=	1200...2365
#Windows=	3
#Auto scanning=	Off
#Autofocus=	Off
#Macrospot=	Off
#AutoExposure=	Off
#Spike filter=	Multiple accum.
#Delay time (s)=	2
#Binning=	1
#Readout mode=	Signal
#DeNoise=	Off
#ICS correction=	On
#Dark correction=	Off
#Inst. Process=	Off
#Detector Gain=	Best Dynamic
#Detector ADC=	50 kHz HS
#Detector temperature (°C)=	-60.09
#Instrument=	LabRAM HR Evol
#Detector=	SIN-EM FIVIS
#Objective=	x100_VIS_LWD
#Grating=	1800 (450-850nm)
#ND Filter=	100%
#Laser=	532nm_Edge
#Hole=	100.021
#Temperature=	0
#Range=	Visible
#StageXY=	75x50mm Scan+
#StageZ=	Z motor
#X (µm)=	0
#Y (µm)=	0
#Z (µm)=	-48.5
#Full time(mm:ss)=	3:23
#Project=	21_11_26
#Sample=	BU19(2)w
#Site=	
#Title=	BU19(2)w-A-FF2b-FI02-V_1800 (450-850nm)_532nm_Edge_100%_x100_VIS_LWD_H100um_30sX2
#Remark=	
#Date=	26.11.2021 16:13
#Acquired=	26.11.2021 16:13:37
1202.72	91.9483
1203	103.927
1203.28	92.1099
1203.56	88.8239
1203.84	91.9826
1204.11	94.0881
1204.39	90.8255
1204.67	91.9038
1204.95	87.6132
1205.23	100.494
1205.5	90.7843
1205.78	87.5237
1206.06	83.1877
1206.34	94.9502
1206.61	88.4695
1206.89	85.2108
1207.17	87.3125
1207.45	82.9932
1207.73	90.4669
1208	87.2323
1208.28	85.0763
1208.56	80.7771
1208.84	85.0314
1209.11	78.5896
1209.39	94.6078
1209.67	84.9727
1209.95	79.6226
1210.23	73.2002
1210.5	79.5972
1210.78	77.4263
1211.06	87.0059
1211.34	73.0979
1211.61	84.8084
1211.89	77.3139
1212.17	84.747
1212.45	83.6474
1212.72	78.2948
1213	76.1401
1213.28	84.6373
1213.56	76.1
1213.83	80.3484
1214.11	87.7823
1214.39	83.5269
1214.67	80.3349
1214.94	79.2703
1215.22	84.5919
1215.5	78.1998
1215.78	84.5822
1216.05	80.3163
1216.33	81.3589
1216.61	83.4565
1216.89	69.5957
1217.16	73.8186
1217.44	74.8576
1217.72	75.8973
1218	83.3083
1218.27	75.8556
1218.55	80.0837
1218.83	80.0658
1219.1	73.6883
1219.38	71.5599
1219.66	77.9181
1219.94	75.7855
1220.21	83.1958
1220.49	78.9495
1220.77	74.7061
1221.04	80.0039
1221.32	79.9947
1221.6	77.8588
1221.88	77.8437
1222.15	70.4015
1222.43	78.848
1222.71	79.8698
1222.98	74.5369
1223.26	77.674
1223.54	72.3507
1223.81	78.6612
1224.09	82.8589
1224.37	75.4352
1224.65	78.5834
1224.92	71.177
1225.2	81.7224
1225.48	77.4966
1225.76	80.6722
1226.03	76.4565
1226.31	77.5213
1226.59	73.2922
1226.86	82.7882
1227.14	78.549
1227.42	70.091
1227.69	79.5477
1227.97	81.5779
1228.25	74.1548
1228.52	76.2167
1228.8	76.1432
1229.08	77.1348
1229.35	72.9245
1229.63	83.6374
1229.91	81.7032
1230.18	71.0791
1230.46	76.2787
1230.74	73.0909
1231.01	80.4712
1231.29	77.2645
1231.57	76.0609
1231.84	72.9212
1232.12	72.9187
1232.4	76.0675
1232.67	67.652
1232.95	78.1556
1233.23	67.6443
1233.5	72.889
1233.78	77.0879
1234.06	77.091
1234.33	78.1475
1234.61	68.6979
1234.89	80.2664
1235.16	78.1765
1235.44	83.4373
1235.71	76.0855
1235.99	81.3504
1236.27	70.8418
1236.54	81.3536
1236.82	81.3424
1237.1	81.3285
1237.37	83.4114
1237.65	77.0789
1237.93	79.1505
1238.2	78.0714
1238.48	74.8939
1238.76	79.0619
1239.03	77.9902
1239.31	77.9755
1239.58	80.0606
1239.86	82.1478
1240.14	73.7555
1240.41	77.9447
1240.69	84.2324
1240.97	76.8961
1241.24	77.9474
1241.52	81.0941
1241.79	78.9893
1242.07	77.9258
1242.35	75.82
1242.62	78.9641
1242.9	73.728
1243.18	78.978
1243.45	75.8427
1243.73	76.8888
1244	70.5988
1244.28	80.0374
1244.56	71.6488
1244.83	80.0291
1245.11	81.0683
1245.39	81.0497
1245.66	89.4095
1245.94	67.384
1246.21	85.1587
1246.49	83.052
1246.76	79.9041
1247.04	85.1371
1247.32	73.6205
1247.59	78.8463
1247.87	78.8437
1248.14	83.02
1248.42	88.2186
1248.7	86.1086
1248.97	80.874
1249.25	81.9238
1249.52	84.0208
1249.8	76.6927
1250.08	91.3314
1250.35	88.1937
1250.63	79.8087
1250.9	89.1956
1251.18	83.9488
1251.45	81.8412
1251.73	87.0497
1252.01	82.8551
1252.28	77.6168
1252.56	82.8225
1252.83	88.0261
1253.11	93.2254
1253.39	80.6833
1253.66	83.8048
1253.94	76.4995
1254.21	82.7727
1254.49	90.0944
1254.76	84.8924
1255.04	78.6335
1255.31	89.0743
1255.59	78.6376
1255.87	83.8578
1256.14	92.2064
1256.42	86.9882
1256.69	88.0384
1256.97	91.1837
1257.24	94.3207
1257.52	99.5372
1257.79	93.2558
1258.07	109.955
1258.35	113.078
1258.62	105.758
1258.9	103.657
1259.17	98.4133
1259.45	98.4099
1259.72	101.552
1260	99.4776
1260.27	95.34
1260.55	108.888
1260.82	118.256
1261.1	124.473
1261.37	116.095
1261.65	139.023
1261.92	141.128
1262.2	146.474
1262.48	164.438
1262.75	191.742
1263.02	197.694
1263.3	218.319
1263.58	216.132
1263.85	217.387
1264.13	212.329
1264.4	192.663
1264.68	174.975
1264.95	161.274
1265.23	135.105
1265.5	125.697
1265.78	124.64
1266.05	105.809
1266.33	122.525
1266.6	102.679
1266.88	108.962
1267.15	102.71
1267.43	96.4597
1267.7	102.759
1267.98	100.696
1268.25	91.3101
1268.53	102.866
1268.8	98.713
1269.08	98.7314
1269.35	100.842
1269.63	96.6622
1269.9	92.4644
1270.18	98.728
1270.45	97.6496
1270.73	102.863
1271	105.977
1271.28	98.6318
1271.55	100.717
1271.83	106.98
1272.1	94.4307
1272.38	96.5449
1272.65	98.6651
1272.93	97.6546
1273.2	103.965
1273.47	101.895
1273.75	106.114
1274.03	99.8506
1274.3	100.925
1274.57	105.136
1274.85	104.091
1275.12	104.086
1275.4	107.232
1275.67	111.439
1275.95	104.112
1276.22	100.981
1276.5	101.004
1276.77	111.52
1277.05	103.14
1277.32	107.355
1277.6	115.784
1277.87	108.456
1278.14	121.092
1278.42	122.167
1278.69	126.394
1278.97	120.119
1279.24	132.76
1279.52	146.457
1279.79	149.604
1280.07	154.85
1280.34	184.279
1280.61	205.305
1280.89	246.34
1281.16	288.438
1281.44	360.056
1281.71	451.733
1281.99	592.846
1282.26	819.142
1282.53	1065.55
1282.81	1394.15
1283.08	1811.82
1283.36	2262.3
1283.63	2609.32
1283.91	2589.45
1284.18	2201.65
1284.45	1637.18
1284.73	1099.05
1285	748.355
1285.28	509.149
1285.55	375.145
1285.83	292.894
1286.1	230.78
1286.37	203.449
1286.65	167.641
1286.92	166.556
1287.2	154.972
1287.47	143.38
1287.75	126.516
1288.02	125.44
1288.29	126.478
1288.57	115.952
1288.84	104.378
1289.12	118.067
1289.39	106.505
1289.66	107.576
1289.94	111.807
1290.21	103.403
1290.49	108.688
1290.76	101.312
1291.03	100.247
1291.31	98.1341
1291.58	100.238
1291.86	106.555
1292.13	103.391
1292.4	90.7528
1292.68	93.9175
1292.95	98.124
1293.22	88.6373
1293.5	93.9068
1293.77	89.7225
1294.05	83.4349
1294.32	84.524
1294.59	91.9147
1294.87	88.7505
1295.14	96.1246
1295.42	95.0864
1295.69	93.0155
1295.96	89.8985
1296.24	87.8492
1296.51	83.6573
1296.79	86.8362
1297.06	92.1227
1297.33	80.4859
1297.61	91.0383
1297.88	82.5668
1298.15	78.322
1298.43	88.8604
1298.7	85.7016
1298.97	80.4137
1299.25	87.7906
1299.52	86.722
1299.79	85.6516
1300.07	82.4831
1300.34	85.664
1300.62	80.3926
1300.89	86.7293
1301.16	74.0543
1301.44	84.6087
1301.71	82.5003
1301.98	82.5134
1302.25	83.5817
1302.53	74.0813
1302.8	86.7585
1303.08	83.5876
1303.35	73.0187
1303.62	73.0098
1303.9	78.2755
1304.17	76.16
1304.44	77.2167
1304.72	81.4398
1304.99	78.2701
1305.26	75.0922
1305.54	82.4674
1305.81	74.0046
1306.08	76.0975
1306.35	77.1329
1306.63	77.1167
1306.9	79.2182
1307.18	68.671
1307.45	75.0044
1307.72	81.3342
1308	78.1679
1308.27	72.8929
1308.54	77.115
1308.81	81.3284
1309.09	72.8937
1309.36	80.289
1309.63	71.8587
1309.91	80.3103
1310.18	79.2616
1310.45	68.7053
1310.73	68.7
1311	72.9202
1311.27	73.9778
1311.55	71.8701
1311.82	78.2051
1312.09	76.0996
1312.37	65.5549
1312.64	68.7312
1312.91	67.6791
1313.18	72.9546
1313.46	69.775
1313.73	68.716
1314	70.82
1314.28	78.2026
1314.55	80.3126
1314.82	73.983
1315.09	72.9338
1315.37	75.0537
1315.64	74.0058
1315.91	78.2391
1316.18	74.0235
1316.46	75.0756
1316.73	75.07
1317	68.7293
1317.28	75.0629
1317.55	71.8937
1317.82	70.8469
1318.09	70.8529
1318.37	67.6874
1318.64	62.4071
1318.91	82.4804
1319.18	74.0281
1319.46	64.517
1319.73	76.1339
1320	78.243
1320.28	69.7959
1320.55	60.2877
1320.82	72.9603
1321.09	71.8925
1321.37	69.7635
1321.64	76.0771
1321.91	73.9413
1322.18	69.7062
1322.46	72.8503
1322.73	63.3465
1323	70.7191
1323.27	71.7621
1323.55	74.9101
1323.82	75.9723
1324.09	68.5937
1324.36	72.8117
1324.64	70.6997
1324.91	63.3187
1325.18	65.4248
1325.45	68.5915
1325.73	68.573
1326	75.9174
1326.27	69.5538
1326.54	62.1364
1326.81	66.3256
1327.09	76.8399
1327.36	64.2361
1327.63	64.2776
1327.9	67.4599
1328.18	74.8594
1328.45	69.6165
1328.72	71.7521
1328.99	67.5541
1329.27	74.9451
1329.54	69.6601
1329.81	73.8868
1330.08	63.3325
1330.35	72.8208
1330.63	68.5912
1330.9	71.7414
1331.17	69.6147
1331.44	70.647
1331.71	71.6722
1331.99	65.3207
1332.26	75.8254
1332.53	68.4355
1332.8	74.7271
1333.07	68.3892
1333.35	68.3638
1333.62	67.2893
1333.89	73.5728
1334.16	71.4497
1334.43	72.4791
1334.71	73.5089
1334.98	66.142
1335.25	64.0281
1335.52	67.1626
1335.79	68.1981
1336.07	70.2829
1336.34	75.5139
1336.61	73.4045
1336.88	67.1029
1337.15	67.0941
1337.43	67.0867
1337.7	72.3208
1337.97	69.1678
1338.24	64.9585
1338.51	62.8474
1338.78	70.169
1339.06	69.1091
1339.33	73.289
1339.6	63.8621
1339.87	64.9107
1340.14	69.1021
1340.42	68.0554
1340.69	72.246
1340.96	67.011
1341.23	76.4341
1341.5	67.0047
1341.77	74.329
1342.04	66.9905
1342.32	65.9319
1342.59	75.3364
1342.86	67.9908
1343.13	69.0181
1343.4	63.7778
1343.67	64.8178
1343.95	58.5396
1344.22	74.2256
1344.49	72.1343
1344.76	74.2251
1345.03	72.1258
1345.3	66.885
1345.58	68.9596
1345.85	74.1619
1346.12	68.9183
1346.39	67.8495
1346.66	66.7707
1346.93	67.7918
1347.2	71.9435
1347.47	68.7912
1347.75	72.9417
1348.02	70.8424
1348.29	70.8323
1348.56	63.5294
1348.83	65.608
1349.1	69.7648
1349.37	74.9598
1349.65	68.6945
1349.92	65.5565
1350.19	66.5849
1350.46	65.531
1350.73	78.0084
1351	69.6634
1351.27	69.6447
1351.54	67.5519
1351.81	78.9727
1352.09	65.4476
1352.36	65.4455
1352.63	66.4921
1352.9	72.7466
1353.17	71.7274
1353.44	72.7785
1353.71	74.9225
1353.98	77.0765
1354.25	75.9614
1354.53	70.6464
1354.8	69.5338
1355.07	70.5797
1355.34	72.6628
1355.61	70.5588
1355.88	70.5449
1356.15	72.6458
1356.42	74.7286
1356.69	70.5563
1356.96	77.8192
1357.24	77.8115
1357.51	74.6873
1357.78	72.5998
1358.05	74.6639
1358.32	70.4979
1358.59	70.4841
1358.86	74.6218
1359.13	77.7179
1359.4	70.4411
1359.67	82.8753
1359.94	79.7528
1360.22	76.621
1360.49	75.5608
1360.76	80.7193
1361.03	69.3078
1361.3	85.8749
1361.57	73.4425
1361.84	79.6535
1362.11	73.4335
1362.38	77.5662
1362.65	81.699
1362.92	83.7609
1363.19	77.5447
1363.46	84.7967
1363.73	80.6679
1364	79.6413
1364.28	90.0091
1364.55	95.1865
1364.82	91.036
1365.09	92.061
1365.36	87.9015
1365.63	92.0221
1365.9	77.5086
1366.17	83.6988
1366.44	82.6445
1366.71	88.8301
1366.98	81.565
1367.25	90.839
1367.52	83.5891
1367.79	88.7471
1368.06	86.6907
1368.33	93.932
1368.6	102.206
1368.87	143.563
1369.15	195.263
1369.41	188.04
1369.68	145.659
1369.95	111.522
1370.23	100.137
1370.5	90.822
1370.77	85.6305
1371.04	83.5519
1371.31	86.6347
1371.58	93.8389
1371.85	91.7419
1372.12	90.6725
1372.39	88.5736
1372.66	97.8231
1372.93	89.5482
1373.2	97.7786
1373.47	97.7646
1373.74	93.6292
1374.01	94.649
1374.28	100.822
1374.55	95.6626
1374.82	90.5041
1375.09	95.6469
1375.36	100.784
1375.63	99.7571
1375.9	99.7687
1376.17	97.7049
1376.44	106.982
1376.71	106.953
1376.98	107.956
1377.25	107.919
1377.52	110.96
1377.79	110.974
1378.06	102.766
1378.33	112.074
1378.6	112.129
1378.87	119.405
1379.14	118.394
1379.41	130.76
1379.68	132.804
1379.95	121.446
1380.22	140.999
1380.49	124.457
1380.76	139.794
1381.03	139.729
1381.3	140.704
1381.57	149.984
1381.84	157.142
1382.11	163.235
1382.38	156.989
1382.65	170.272
1382.92	176.368
1383.19	182.456
1383.46	195.74
1383.73	230.55
1384	229.484
1384.27	263.282
1384.54	297.124
1384.81	356.619
1385.08	407.959
1385.34	501.419
1385.61	649.389
1385.88	932.87
1386.15	1372.51
1386.42	2025.76
1386.69	3235.02
1386.96	4763.74
1387.23	5872.99
1387.5	5308.99
1387.77	3611.67
1388.04	2179
1388.31	1267.11
1388.58	805.069
1388.85	531.663
1389.12	401.999
1389.39	320.114
1389.66	269.826
1389.93	215.431
1390.2	194.827
1390.46	183.391
1390.73	165.892
1391	149.479
1391.27	150.442
1391.54	136.081
1391.81	137.092
1392.08	138.084
1392.35	123.708
1392.62	113.439
1392.89	111.371
1393.16	117.497
1393.43	111.341
1393.7	111.329
1393.97	117.459
1394.23	106.191
1394.5	108.229
1394.77	99.0128
1395.04	102.078
1395.31	104.134
1395.58	95.9632
1395.85	91.8794
1396.12	94.9539
1396.39	94.9501
1396.66	98.0118
1396.93	93.9057
1397.2	91.8462
1397.46	91.828
1397.73	95.9017
1398	94.8689
1398.27	88.7302
1398.54	89.7582
1398.81	92.837
1399.08	84.6581
1399.35	92.8468
1399.62	93.8851
1399.89	90.8243
1400.16	89.8087
1400.42	89.807
1400.69	78.5585
1400.96	84.721
1401.23	88.8265
1401.5	88.8223
1401.77	90.8805
1402.04	92.9272
1402.31	96.0314
1402.58	84.8095
1402.84	91.0149
1403.11	83.8715
1403.38	86.9769
1403.65	94.1759
1403.92	93.1494
1404.19	98.2617
1404.46	94.102
1404.73	98.2193
1404.99	105.391
1405.26	106.404
1405.53	107.41
1405.8	119.695
1406.07	113.521
1406.34	127.854
1406.61	140.14
1406.87	149.353
1407.14	168.834
1407.41	184.221
1407.68	208.84
1407.95	246.785
1408.22	279.609
1408.49	319.613
1408.76	347.318
1409.02	327.859
1409.29	279.687
1409.56	239.709
1409.83	196.646
1410.1	174.088
1410.37	133.056
1410.63	129.952
1410.9	110.434
1411.17	97.0736
1411.44	95.0008
1411.71	91.9098
1411.98	84.7254
1412.25	82.6728
1412.51	80.6345
1412.78	78.6072
1413.05	79.6814
1413.32	78.7496
1413.59	76.7424
1413.86	71.5493
1414.12	66.3274
1414.39	73.5201
1414.66	68.4378
1414.93	72.5758
1415.2	67.4372
1415.47	66.4122
1415.73	68.4651
1416	67.4397
1416.27	62.3106
1416.54	68.477
1416.81	64.375
1417.07	58.2183
1417.34	66.4425
1417.61	72.6139
1417.88	64.4012
1418.15	64.4042
1418.42	64.4047
1418.68	70.5724
1418.95	70.5751
1419.22	61.3261
1419.49	68.5206
1419.76	65.4297
1420.02	62.3344
1420.29	68.4845
1420.56	63.3357
1420.83	58.1878
1421.1	61.2542
1421.36	66.3743
1421.63	67.394
1421.9	61.2387
1422.17	63.3078
1422.44	63.3285
1422.7	63.3493
1422.97	65.4388
1423.24	55.2062
1423.51	67.6116
1423.77	57.1769
1424.04	68.3329
1424.31	66.2998
1424.58	64.1858
1424.85	64.1856
1425.11	65.2282
1425.38	69.3752
1425.65	61.1781
1425.92	67.3219
1426.19	64.267
1426.45	62.2099
1426.72	63.2237
1426.99	55.0034
1427.26	65.2386
1427.52	62.1442
1427.79	54.947
1428.06	60.0486
1428.33	60.038
1428.59	57.9857
1428.86	54.9141
1429.13	50.8208
1429.4	49.8003
1429.67	55.9504
1429.93	53.9097
1430.2	56.9943
1430.47	49.8351
1430.74	57.0204
1431	59.0879
1431.27	57.0618
1431.54	54.0023
1431.81	55.0373
1432.07	45.7994
1432.34	57.0782
1432.61	50.9081
1432.87	55.0028
1433.14	56.0107
1433.41	57.014
1433.68	54.9394
1433.95	57.9897
1434.21	52.8543
1434.48	49.7763
1434.75	57.9945
1435.01	53.9074
1435.28	56.9831
1435.55	53.9085
1435.82	56.9807
1436.08	53.9032
1436.35	49.8006
1436.62	52.87
1436.89	49.7909
1437.15	54.9071
1437.42	52.853
1437.69	51.8265
1437.95	55.9165
1438.22	46.6959
1438.49	47.7217
1438.76	47.7283
1439.02	52.8542
1439.29	60.0264
1439.56	50.8081
1439.82	59.0129
1440.09	51.8512
1440.36	54.9408
1440.63	47.7695
1440.89	52.8989
1441.16	48.7972
1441.43	48.7992
1441.69	49.8201
1441.96	50.8362
1442.23	46.7302
1442.49	47.7645
1442.76	50.8413
1443.03	48.7995
1443.3	46.7414
1443.56	50.834
1443.83	47.7502
1444.1	48.7697
1444.36	51.8423
1444.63	50.8197
1444.9	56.9864
1445.16	54.9483
1445.43	49.8351
1445.7	49.8301
1445.97	53.9281
1446.23	43.6647
1446.5	51.8659
1446.77	48.7842
1447.03	54.933
1447.3	52.8769
1447.57	51.8453
1447.83	54.9138
1448.1	44.6556
1448.37	50.8056
1448.63	47.7377
1448.9	49.7989
1449.17	54.9296
1449.43	50.8254
1449.7	52.8714
1449.97	50.8128
1450.23	49.7783
1450.5	47.719
1450.77	48.7391
1451.03	46.6845
1451.3	50.7795
1451.57	46.675
1451.83	43.5953
1452.1	48.7132
1452.37	52.8068
1452.63	52.8038
1452.9	42.5584
1453.17	49.7318
1453.43	45.6379
1453.7	46.6663
1453.97	45.641
1454.23	41.5379
1454.5	47.683
1454.77	43.5833
1455.03	43.5825
1455.3	52.8027
1455.56	48.6998
1455.83	45.626
1456.1	47.6829
1456.36	50.7614
1456.63	42.561
1456.9	42.5565
1457.16	49.7212
1457.43	45.6141
1457.7	43.5608
1457.96	47.6547
1458.23	41.5057
1458.49	43.5538
1458.76	48.6761
1459.03	49.7026
1459.29	45.606
1459.56	44.5822
1459.82	41.5085
1460.09	43.5552
1460.36	45.6004
1460.62	47.6451
1460.89	54.8107
1461.16	42.513
1461.42	44.5547
1461.69	39.428
1461.95	40.4452
1462.22	47.6032
1462.49	44.523
1462.75	40.4198
1463.02	44.5024
1463.28	43.4682
1463.55	49.5925
1463.82	38.3345
1464.08	43.4441
1464.35	35.2754
1464.61	43.4765
1464.88	42.4678
1465.15	43.5112
1465.41	43.4764
1465.68	36.2456
1465.94	44.3791
1466.21	45.3943
1466.48	43.366
1466.74	42.3402
1467.01	41.3001
1467.27	49.4547
1467.54	44.3574
1467.8	42.3133
1468.07	40.2691
1468.34	44.3466
1468.6	43.3248
1468.87	43.3229
1469.13	43.3195
1469.4	44.3341
1469.67	40.2486
1469.93	47.3768
1470.2	42.2679
1470.46	36.1439
1470.73	40.214
1470.99	41.2271
1471.26	39.1855
1471.53	44.2725
1471.79	42.2258
1472.06	47.3107
1472.32	45.2698
1472.59	41.1941
1472.85	42.2102
1473.12	47.299
1473.39	40.1675
1473.65	34.0527
1473.92	40.1536
1474.18	43.2008
1474.45	41.1614
1474.71	44.2133
1474.98	41.1632
1475.24	41.165
1475.51	40.1468
1475.78	44.2157
1476.04	39.1221
1476.31	40.1334
1476.57	44.1984
1476.84	40.1239
1477.1	43.1682
1477.37	39.0917
1477.63	40.1044
1477.9	35.0172
1478.16	39.083
1478.43	47.2121
1478.69	39.0688
1478.96	41.0949
1479.22	39.0551
1479.49	42.0959
1479.76	40.0549
1480.02	40.0451
1480.29	39.02
1480.55	42.0504
1480.82	37.9774
1481.08	41.013
1481.35	37.9643
1481.61	42.0145
1481.88	39.9884
1482.14	43.0381
1482.41	43.0451
1482.67	36.9624
1482.94	37.9826
1483.2	37.9815
1483.47	35.9545
1483.73	33.925
1484	42.0479
1484.26	41.03
1484.53	39.9972
1484.79	38.959
1485.06	40.9425
1485.32	42.9094
1485.59	40.8641
1485.85	43.8635
1486.12	41.9394
1486.38	44.9907
1486.65	42.9794
1486.91	39.8941
1487.18	47.0065
1487.44	37.8922
1487.71	42.9453
1487.97	41.9214
1488.24	34.8253
1488.5	40.894
1488.77	43.9209
1489.03	34.8001
1489.3	42.8879
1489.56	39.8466
1489.83	35.7952
1490.09	34.78
1490.36	41.8604
1490.62	40.8471
1490.89	45.8987
1491.15	41.8431
1491.42	45.8783
1491.68	39.8066
1491.95	38.7928
1492.21	45.8687
1492.48	35.7593
1492.74	38.7901
1493	36.7651
1493.27	35.7519
1493.53	37.7727
1493.8	42.8232
1494.06	37.7665
1494.33	42.8201
1494.59	37.7675
1494.86	40.8027
1495.12	41.811
1495.39	38.7708
1495.65	44.8213
1495.92	38.743
1496.18	39.7404
1496.45	41.7514
1496.71	43.7637
1496.97	40.7289
1497.24	39.7129
1497.5	41.7301
1497.77	38.7009
1498.03	40.7161
1498.3	44.7509
1498.56	42.7318
1498.82	34.658
1499.09	41.723
1499.35	37.6866
1499.62	40.7162
1499.88	40.7189
1500.15	40.7214
1500.41	42.7411
1500.68	41.7302
1500.94	38.6991
1501.2	43.7444
1501.47	40.7104
1501.73	39.6922
1502	38.6795
1502.26	42.7138
1502.52	37.6656
1502.79	40.6879
1503.05	43.7045
1503.32	37.6431
1503.58	44.6969
1503.85	39.6463
1504.11	39.6451
1504.37	41.6647
1504.64	38.6403
1504.9	33.5973
1505.17	38.6368
1505.43	39.64
1505.7	38.6246
1505.96	41.6362
1506.22	37.59
1506.49	40.6087
1506.75	36.5767
1507.02	40.6072
1507.28	41.6198
1507.54	44.6434
1507.81	39.6059
1508.07	39.6045
1508.34	38.5932
1508.6	37.5824
1508.86	41.6125
1509.13	39.5978
1509.39	39.5974
1509.66	42.6187
1509.92	41.6099
1510.18	41.6136
1510.45	37.5841
1510.71	43.6215
1510.98	37.5672
1511.24	42.5934
1511.5	38.5525
1511.77	41.5552
1512.03	34.49
1512.29	39.4979
1512.56	36.462
1512.82	37.4499
1513.08	39.4475
1513.35	41.4455
1513.61	38.4246
1513.88	38.4204
1514.14	39.4326
1514.4	39.4472
1514.67	42.4637
1514.93	30.4046
1515.2	41.4427
1515.46	40.4265
1515.72	34.3928
1515.99	44.415
1516.25	43.3974
1516.51	40.3784
1516.78	42.3789
1517.04	35.3555
1517.3	44.3759
1517.57	40.3631
1517.83	42.3681
1518.09	40.3648
1518.36	42.3771
1518.62	36.3607
1518.88	41.3775
1519.15	40.3759
1519.41	37.369
1519.67	36.3678
1519.94	39.3785
1520.2	35.3634
1520.47	36.3623
1520.73	39.3681
1520.99	40.3726
1521.26	39.3724
1521.52	36.3649
1521.78	35.3618
1522.05	36.3627
1522.31	35.355
1522.57	42.3722
1522.84	44.3721
1523.1	37.3457
1523.36	42.3523
1523.62	38.3284
1523.89	39.3139
1524.15	37.2985
1524.41	40.2944
1524.68	40.2862
1524.94	38.2761
1525.2	41.2838
1525.47	39.2818
1525.73	41.2853
1525.99	39.2872
1526.26	41.2974
1526.52	39.3034
1526.78	41.3153
1527.05	37.3081
1527.31	37.3062
1527.57	46.3198
1527.84	43.3093
1528.1	35.2878
1528.36	43.2999
1528.63	36.2804
1528.89	40.2825
1529.15	43.2829
1529.41	37.2697
1529.68	40.2729
1529.94	36.2629
1530.2	42.2644
1530.47	38.256
1530.73	39.2601
1530.99	37.2639
1531.25	39.2745
