#Acq. time (s)=	30
#Accumulations=	2
#Range (cm-¹)=	1200...2365
#Windows=	3
#Auto scanning=	Off
#Autofocus=	Off
#Macrospot=	Off
#AutoExposure=	Off
#Spike filter=	Multiple accum.
#Delay time (s)=	2
#Binning=	1
#Readout mode=	Signal
#DeNoise=	Off
#ICS correction=	On
#Dark correction=	Off
#Inst. Process=	Off
#Detector Gain=	Best Dynamic
#Detector ADC=	50 kHz HS
#Detector temperature (°C)=	-60.09
#Instrument=	LabRAM HR Evol
#Detector=	SIN-EM FIVIS
#Objective=	x100_VIS_LWD
#Grating=	1800 (450-850nm)
#ND Filter=	100%
#Laser=	532nm_Edge
#Hole=	100.021
#Temperature=	0
#Range=	Visible
#StageXY=	75x50mm Scan+
#StageZ=	Z motor
#X (µm)=	0
#Y (µm)=	0
#Z (µm)=	-63.9
#Full time(mm:ss)=	3:23
#Project=	21_11_26
#Sample=	BU19(2)w
#Site=	
#Title=	BU19(2)w-A-FF1-FI08-V_1800 (450-850nm)_532nm_Edge_100%_x100_VIS_LWD_H100um_30sX2
#Remark=	
#Date=	26.11.2021 16:41
#Acquired=	26.11.2021 16:41:21
1202.72	95.1745
1203	89.9266
1203.28	84.569
1203.56	86.6712
1203.84	102.742
1204.11	83.3356
1204.39	94.0516
1204.67	92.9803
1204.95	88.69
1205.23	86.5222
1205.5	88.6374
1205.78	85.378
1206.06	84.2638
1206.34	89.5878
1206.61	92.7626
1206.89	90.5741
1207.17	81.9583
1207.45	87.2813
1207.73	85.1165
1208	89.3775
1208.28	89.3622
1208.56	80.7816
1208.84	88.2457
1209.11	85.012
1209.39	90.3356
1209.67	83.9088
1209.95	90.3195
1210.23	80.6892
1210.5	77.4655
1210.78	89.1845
1211.06	78.4686
1211.34	82.7129
1211.61	73.0759
1211.89	79.4546
1212.17	84.7542
1212.45	85.7869
1212.72	76.1709
1213	80.4098
1213.28	76.1243
1213.56	78.2381
1213.83	82.4865
1214.11	86.7264
1214.39	78.2127
1214.67	79.2794
1214.94	79.2796
1215.22	81.4074
1215.5	79.2742
1215.78	80.3339
1216.05	76.0686
1216.33	83.4976
1216.61	71.765
1216.89	73.8599
1217.16	80.2073
1217.44	76.994
1217.72	79.0956
1218	85.444
1218.27	82.238
1218.55	77.9727
1218.83	71.5877
1219.1	72.6396
1219.38	76.8781
1219.66	75.809
1219.94	76.8595
1220.21	74.7237
1220.49	74.7205
1220.77	81.0838
1221.04	71.5331
1221.32	80.0089
1221.6	76.8129
1221.88	85.2791
1222.15	85.2535
1222.43	71.4474
1222.71	74.5905
1222.98	83.0193
1223.26	79.8054
1223.54	76.5961
1223.81	70.2217
1224.09	74.4226
1224.37	78.6203
1224.65	76.4882
1224.92	79.6399
1225.2	78.5727
1225.48	81.7363
1225.76	76.467
1226.03	70.1394
1226.31	78.5952
1226.59	64.8633
1226.86	74.3601
1227.14	77.512
1227.42	78.5533
1227.69	80.6216
1227.97	81.5972
1228.25	78.3872
1228.52	76.2364
1228.8	76.1631
1229.08	80.3074
1229.35	86.6046
1229.63	73.1245
1229.91	70.1125
1230.18	76.373
1230.46	79.4607
1230.74	75.2187
1231.01	74.1728
1231.29	76.2336
1231.57	82.3868
1231.84	73.9943
1232.12	72.9411
1232.4	84.4964
1232.67	80.2828
1232.95	81.3306
1233.23	75.0217
1233.5	71.8621
1233.78	79.2125
1234.06	77.115
1234.33	76.0705
1234.61	90.7871
1234.89	76.0875
1235.16	81.3544
1235.44	77.1556
1235.71	74.0082
1235.99	79.2732
1236.27	79.2788
1236.54	82.4309
1236.82	79.2659
1237.1	76.0992
1237.37	75.0308
1237.65	77.1056
1237.93	84.4282
1238.2	75.999
1238.48	81.2176
1238.76	83.2856
1239.03	76.9692
1239.31	80.1006
1239.58	69.6047
1239.86	82.1762
1240.14	76.9287
1240.41	81.1181
1240.69	84.2614
1240.97	79.0218
1241.24	83.2182
1241.52	82.1721
1241.79	83.212
1242.07	82.148
1242.35	86.3294
1242.62	80.0425
1242.9	74.8067
1243.18	74.8164
1243.45	84.26
1243.73	77.9684
1244	79.0165
1244.28	81.1176
1244.56	82.164
1244.83	79.013
1245.11	79.0044
1245.39	84.2261
1245.66	89.4423
1245.94	79.9847
1246.21	85.192
1246.49	77.8514
1246.76	80.9845
1247.04	87.2645
1247.32	83.075
1247.59	80.9739
1247.87	90.3908
1248.14	84.1012
1248.42	92.4379
1248.7	88.2355
1248.97	81.9553
1249.25	86.1431
1249.52	79.8727
1249.8	80.9124
1250.08	87.1841
1250.35	86.1384
1250.63	78.7997
1250.9	84.0055
1251.18	76.6696
1251.45	83.9684
1251.73	84.9976
1252.01	90.205
1252.28	82.8768
1252.56	93.3029
1252.83	81.8003
1253.11	88.0449
1253.39	76.5476
1253.66	88.0178
1253.94	91.1478
1254.21	97.4236
1254.49	79.6954
1254.76	92.241
1255.04	92.248
1255.31	84.9378
1255.59	87.0322
1255.87	100.607
1256.14	95.3799
1256.42	96.4277
1256.69	92.2571
1256.97	101.67
1257.24	92.2734
1257.52	100.624
1257.79	117.318
1258.07	116.262
1258.35	114.164
1258.62	120.418
1258.9	108.92
1259.17	110.981
1259.45	113.065
1259.72	104.727
1260	107.873
1260.27	116.272
1260.55	126.683
1260.82	127.695
1261.1	131.822
1261.37	145.351
1261.65	145.327
1261.92	151.606
1262.2	164.27
1262.48	179.121
1262.75	189.695
1263.02	202.962
1263.3	224.625
1263.58	222.435
1263.85	215.346
1264.13	201.931
1264.4	183.3
1264.68	170.839
1264.95	156.095
1265.23	144.559
1265.5	133.061
1265.78	140.364
1266.05	114.216
1266.33	107.946
1266.6	110.043
1266.88	126.778
1267.15	115.303
1267.43	111.147
1267.7	112.221
1267.98	101.792
1268.25	111.243
1268.53	106.057
1268.8	106.095
1269.08	106.115
1269.35	100.893
1269.63	116.622
1269.9	110.327
1270.18	110.302
1270.45	106.079
1270.73	113.384
1271	106.029
1271.28	111.243
1271.55	108.095
1271.83	105.987
1272.1	101.809
1272.38	104.971
1272.65	106.047
1272.93	110.277
1273.2	104.019
1273.47	108.237
1273.75	114.554
1274.03	110.39
1274.3	114.613
1274.57	116.729
1274.85	106.244
1275.12	112.533
1275.4	113.581
1275.67	113.593
1275.95	113.611
1276.22	117.828
1276.5	113.657
1276.77	113.677
1277.05	126.298
1277.32	117.914
1277.6	126.346
1277.87	131.629
1278.14	137.966
1278.42	130.634
1278.69	144.326
1278.97	153.831
1279.24	166.477
1279.52	157.036
1279.79	181.221
1280.07	196.984
1280.34	222.201
1280.61	266.364
1280.89	311.611
1281.16	416.828
1281.44	512.678
1281.71	665.447
1281.99	873.957
1282.26	1176.03
1282.53	1462.48
1282.81	1819.56
1283.08	2108.73
1283.36	2351.79
1283.63	2469.58
1283.91	2329.96
1284.18	1946.37
1284.45	1521.6
1284.73	1070.67
1285	753.687
1285.28	530.286
1285.55	385.74
1285.83	325.595
1286.1	260.324
1286.37	233
1286.65	194.033
1286.92	192.943
1287.2	165.565
1287.47	156.079
1287.75	153.95
1288.02	153.922
1288.29	139.172
1288.57	122.332
1288.84	128.649
1289.12	121.291
1289.39	127.624
1289.66	119.224
1289.94	121.351
1290.21	122.429
1290.49	117.182
1290.76	117.181
1291.03	106.635
1291.31	110.841
1291.58	109.785
1291.86	99.2514
1292.13	109.779
1292.4	99.2471
1292.68	112.945
1292.95	107.672
1293.22	95.0255
1293.5	104.508
1293.77	99.2741
1294.05	96.1525
1294.32	98.3016
1294.59	102.531
1294.87	88.8213
1295.14	101.468
1295.42	96.2123
1295.69	99.4176
1295.96	99.4713
1296.24	91.0903
1296.51	93.2412
1296.79	94.3074
1297.06	95.3662
1297.33	90.0707
1297.61	95.3381
1297.88	93.205
1298.15	95.2957
1298.43	94.2139
1298.7	91.056
1298.97	93.1602
1299.25	95.2558
1299.52	84.6849
1299.79	83.615
1300.07	95.2246
1300.34	91.0177
1300.62	84.6913
1300.89	93.1401
1301.16	92.0792
1301.44	82.5729
1301.71	88.9115
1301.98	87.8699
1302.25	85.7706
1302.53	88.9462
1302.8	90.0045
1303.08	86.8336
1303.35	88.9399
1303.62	88.9295
1303.9	94.1926
1304.17	79.4057
1304.44	86.7984
1304.72	89.9658
1304.99	78.3487
1305.26	79.3942
1305.54	83.6021
1305.81	86.7486
1306.08	81.4527
1306.35	83.542
1306.63	88.7983
1306.9	86.6806
1307.18	80.352
1307.45	86.6867
1307.72	87.7433
1308	72.9753
1308.27	79.3023
1308.54	80.3607
1308.81	81.41
1309.09	80.359
1309.36	87.7556
1309.63	83.547
1309.91	80.3927
1310.18	87.7871
1310.45	77.2308
1310.73	86.7226
1311	80.3904
1311.27	79.3379
1311.55	75.1199
1311.82	77.2336
1312.09	83.5723
1312.37	78.3076
1312.64	78.3184
1312.91	76.2113
1313.18	81.4867
1313.46	80.4174
1313.73	80.4139
1314	84.6284
1314.28	74.0663
1314.55	78.2876
1314.82	76.1804
1315.09	77.243
1315.37	73.0287
1315.64	77.2605
1315.91	78.3262
1316.18	79.392
1316.46	78.3317
1316.73	71.9893
1317	76.2099
1317.28	77.2632
1317.55	77.2624
1317.82	75.1603
1318.09	69.8854
1318.37	74.1147
1318.64	80.4557
1318.91	76.231
1319.18	75.1742
1319.46	73.0584
1319.73	74.1112
1320	79.3896
1320.28	74.1121
1320.55	76.2252
1320.82	73.0512
1321.09	79.3774
1321.37	71.9668
1321.64	77.2243
1321.91	72.9777
1322.18	77.1846
1322.46	78.217
1322.73	68.7128
1323	68.7025
1323.27	81.3452
1323.55	77.1117
1323.82	70.7936
1324.09	71.8504
1324.36	66.5786
1324.64	80.2835
1324.91	78.1751
1325.18	73.9545
1325.45	76.0675
1325.73	73.9388
1326	69.6898
1326.27	68.5958
1326.54	76.9655
1326.81	71.6817
1327.09	71.6755
1327.36	76.9606
1327.63	77.0107
1327.9	75.9838
1328.18	72.8484
1328.45	72.876
1328.72	66.5759
1328.99	75.0361
1329.27	72.9324
1329.54	65.538
1329.81	79.26
1330.08	73.9808
1330.35	66.5895
1330.63	79.2377
1330.9	75.004
1331.17	73.9311
1331.44	77.0704
1331.71	69.6643
1331.99	78.0585
1332.26	79.0837
1332.53	79.0609
1332.8	80.0884
1333.07	76.9045
1333.35	76.8764
1333.62	72.6459
1333.89	78.9281
1334.16	74.7026
1334.43	73.6309
1334.71	72.5607
1334.98	72.5423
1335.25	73.5758
1335.52	76.7087
1335.79	74.5953
1336.07	77.7282
1336.34	77.7144
1336.61	73.5077
1336.88	70.3516
1337.15	76.6328
1337.43	76.6247
1337.7	74.5212
1337.97	76.6083
1338.24	78.6842
1338.51	71.3324
1338.78	71.3213
1339.06	73.4031
1339.33	69.2059
1339.6	74.4385
1339.87	71.2992
1340.14	73.3968
1340.42	74.4448
1340.69	68.1634
1340.96	72.354
1341.23	76.5408
1341.5	75.4895
1341.77	73.389
1342.04	70.239
1342.32	78.6019
1342.59	79.6308
1342.86	80.6553
1343.13	72.2647
1343.4	76.4377
1343.67	82.7064
1343.95	72.2444
1344.22	72.243
1344.49	77.4729
1344.76	71.197
1345.03	71.1898
1345.3	71.1773
1345.58	70.1151
1345.85	81.5876
1346.12	79.4767
1346.39	76.3157
1346.66	71.0574
1346.93	73.121
1347.2	72.055
1347.47	78.2894
1347.75	76.1815
1348.02	70.9544
1348.29	68.8599
1348.56	74.0643
1348.83	64.6786
1349.1	74.0458
1349.37	79.2403
1349.65	78.1824
1349.92	77.1258
1350.19	78.1523
1350.46	75.0146
1350.73	71.8774
1351	76.0215
1351.27	73.9207
1351.54	73.9079
1351.81	80.1276
1352.09	77.0012
1352.36	71.8
1352.63	73.8875
1352.9	73.9027
1353.17	74.965
1353.44	71.8542
1353.71	81.2883
1353.98	69.8957
1354.25	83.3691
1354.53	86.3633
1354.8	73.8069
1355.07	77.9705
1355.34	81.0936
1355.61	76.9094
1355.88	74.8174
1356.15	78.9978
1356.42	75.8862
1356.69	78.9855
1356.96	80.0156
1357.24	81.0466
1357.51	75.8453
1357.78	76.873
1358.05	85.1659
1358.32	86.1885
1358.59	79.945
1358.86	78.893
1359.13	88.2134
1359.4	77.8229
1359.67	78.8481
1359.94	86.0961
1360.22	88.1465
1360.49	76.7191
1360.76	91.2027
1361.03	80.8254
1361.3	87.0333
1361.57	84.9595
1361.84	87.0271
1362.11	80.8068
1362.38	89.0814
1362.65	87.0001
1362.92	88.0263
1363.19	85.9517
1363.46	95.2754
1363.73	99.4335
1364	92.1949
1364.28	96.3492
1364.55	97.3833
1364.82	96.3402
1365.09	97.3649
1365.36	98.3823
1365.63	90.0773
1365.9	99.3706
1366.17	82.7903
1366.44	85.8747
1366.71	85.8538
1366.98	87.8962
1367.25	88.8988
1367.52	97.1524
1367.79	104.376
1368.06	100.255
1368.33	108.531
1368.6	133.346
1368.87	150.928
1369.15	207.797
1369.41	190.237
1369.68	159.23
1369.95	132.329
1370.23	107.503
1370.5	99.2208
1370.77	104.361
1371.04	100.214
1371.31	96.0625
1371.58	92.9367
1371.85	94.9699
1372.12	99.0597
1372.39	103.148
1372.66	101.048
1372.93	92.7728
1373.2	101.003
1373.47	108.204
1373.74	103.037
1374.01	104.056
1374.28	101.985
1374.55	112.28
1374.82	106.091
1375.09	105.052
1375.36	107.098
1375.63	100.921
1375.9	105.054
1376.17	111.231
1376.44	118.449
1376.71	115.328
1376.98	117.358
1377.25	119.378
1377.52	106.98
1377.79	111.109
1378.06	116.283
1378.33	119.418
1378.6	120.507
1378.87	127.788
1379.14	123.685
1379.41	117.494
1379.68	127.786
1379.95	128.798
1380.22	129.801
1380.49	123.564
1380.76	136.844
1381.03	136.781
1381.3	150.098
1381.57	147.036
1381.84	161.394
1382.11	160.29
1382.38	172.538
1382.65	163.223
1382.92	191.905
1383.19	204.145
1383.46	204.087
1383.73	242.997
1384	248.08
1384.27	290.078
1384.54	338.274
1384.81	408.026
1385.08	500.398
1385.34	654.406
1385.61	856.824
1385.88	1208.11
1386.15	1850.07
1386.42	2682.06
1386.69	3883.24
1386.96	4974.45
1387.23	5458.17
1387.5	4856.52
1387.77	3545.23
1388.04	2295.73
1388.31	1359.24
1388.58	886.048
1388.85	589.197
1389.12	458.577
1389.39	352.086
1389.66	302.828
1389.93	253.572
1390.2	235.008
1390.46	205.078
1390.73	192.698
1391	180.386
1391.27	161.863
1391.54	157.749
1391.81	157.734
1392.08	152.575
1392.35	148.438
1392.62	121.778
1392.89	129.948
1393.16	126.858
1393.43	129.914
1393.7	127.853
1393.97	121.7
1394.23	111.456
1394.5	120.658
1394.77	115.533
1395.04	115.528
1395.31	114.517
1395.58	113.512
1395.85	113.525
1396.12	108.411
1396.39	111.478
1396.66	116.586
1396.93	106.337
1397.2	102.23
1397.46	100.164
1397.73	103.213
1398	89.9061
1398.27	95.0186
1398.54	107.299
1398.81	102.196
1399.08	96.0641
1399.35	103.231
1399.62	97.1076
1399.89	100.188
1400.16	102.244
1400.42	90.9837
1400.69	101.232
1400.96	101.257
1401.23	100.245
1401.5	99.2165
1401.77	108.445
1402.04	96.1541
1402.31	98.2351
1402.58	102.39
1402.84	97.3241
1403.11	104.55
1403.38	108.688
1403.65	108.704
1403.92	102.545
1404.19	103.55
1404.46	107.595
1404.73	117.87
1404.99	108.626
1405.26	117.845
1405.53	113.721
1405.8	119.852
1406.07	135.21
1406.34	156.715
1406.61	148.498
1406.87	159.76
1407.14	187.442
1407.41	203.856
1407.68	222.326
1407.95	261.297
1408.22	286.945
1408.49	317.722
1408.76	331.071
1409.02	304.433
1409.29	286
1409.56	240.895
1409.83	197.832
1410.1	172.198
1410.37	159.888
1410.63	132.165
1410.9	114.697
1411.17	107.486
1411.44	103.361
1411.71	97.195
1411.98	95.1328
1412.25	91.031
1412.51	91.0434
1412.78	85.9445
1413.05	81.8957
1413.32	76.8594
1413.59	77.9333
1413.86	78.8995
1414.12	80.8454
1414.39	78.8119
1414.66	74.7594
1414.93	76.8472
1415.2	86.0813
1415.47	79.9239
1415.73	75.8171
1416	78.899
1416.27	71.7175
1416.54	71.7235
1416.81	69.6761
1417.07	71.7372
1417.34	70.718
1417.61	68.6712
1417.88	72.788
1418.15	67.654
1418.42	67.6548
1418.68	70.74
1418.95	72.7983
1419.22	65.6049
1419.49	69.7166
1419.76	66.6258
1420.02	74.8322
1420.29	67.6262
1420.56	68.6401
1420.83	71.7061
1421.1	74.7699
1421.36	71.6763
1421.63	65.5112
1421.9	68.5938
1422.17	69.6384
1422.44	68.6343
1422.7	64.5475
1422.97	72.8055
1423.24	70.81
1423.51	69.8425
1423.77	70.7039
1424.04	68.5047
1424.31	64.4209
1424.58	69.4806
1424.85	66.4071
1425.11	71.5499
1425.38	71.5992
1425.65	72.6336
1425.92	70.5718
1426.19	69.57
1426.45	67.5127
1426.72	65.4489
1426.99	70.5585
1427.26	58.2371
1427.52	60.2692
1427.79	60.2439
1428.06	63.2958
1428.33	57.1415
1428.59	65.3282
1428.86	61.2331
1429.13	64.3081
1429.4	64.313
1429.67	64.32
1429.93	59.2079
1430.2	55.1219
1430.47	57.1858
1430.74	58.2226
1431	59.2653
1431.27	62.3685
1431.54	68.5466
1431.81	59.3207
1432.07	60.3468
1432.34	59.309
1432.61	59.2944
1432.87	60.3107
1433.14	54.1387
1433.41	55.143
1433.68	59.2178
1433.95	54.0722
1434.21	59.1787
1434.48	56.1002
1434.75	61.2482
1435.01	56.1373
1435.28	51.0155
1435.55	54.0894
1435.82	60.236
1436.08	55.1093
1436.35	56.1299
1436.62	58.1746
1436.89	56.1197
1437.15	55.0893
1437.42	58.1569
1437.69	55.0819
1437.95	54.0511
1438.22	56.096
1438.49	55.0742
1438.76	49.9605
1439.02	52.0134
1439.29	59.1858
1439.56	54.0658
1439.82	55.0985
1440.09	53.0607
1440.36	55.1256
1440.63	55.132
1440.89	58.2112
1441.16	52.0589
1441.43	52.0613
1441.69	51.0314
1441.96	54.0981
1442.23	60.244
1442.49	52.0526
1442.76	56.1552
1443.03	57.1916
1443.3	56.1583
1443.56	57.1735
1443.83	51.0134
1444.1	52.0328
1444.36	55.1056
1444.63	56.1336
1444.9	55.1239
1445.16	50.0083
1445.43	51.0499
1445.7	54.123
1445.97	44.8844
1446.23	52.0605
1446.5	46.9269
1446.77	48.9741
1447.03	53.0719
1447.3	54.0927
1447.57	51.0104
1447.83	40.7506
1448.1	46.8969
1448.37	53.0471
1448.63	52.0305
1448.9	51.0161
1449.17	55.1213
1449.43	52.043
1449.7	48.9613
1449.97	53.0561
1450.23	52.0215
1450.5	54.0626
1450.77	49.9572
1451.03	53.0275
1451.3	45.8484
1451.57	50.9679
1451.83	53.0116
1452.1	54.0304
1452.37	40.7065
1452.63	50.9493
1452.9	50.9494
1453.17	49.9267
1453.43	44.8083
1453.7	49.9361
1453.97	48.911
1454.23	49.9318
1454.5	43.7801
1454.77	41.73
1455.03	43.7789
1455.3	47.8758
1455.56	46.8473
1455.83	47.8724
1456.1	50.9547
1456.36	48.909
1456.63	42.7586
1456.9	48.9036
1457.16	46.8452
1457.43	49.9106
1457.7	42.7349
1457.96	48.8779
1458.23	44.7778
1458.49	46.8262
1458.76	44.7779
1459.03	47.8532
1459.29	42.7322
1459.56	40.6839
1459.82	48.8809
1460.09	41.7065
1460.36	45.8011
1460.62	46.8216
1460.89	50.9144
1461.16	44.7627
1461.42	43.7321
1461.69	44.7497
1461.95	50.8856
1462.22	41.6632
1462.49	50.8664
1462.75	46.7622
1463.02	46.7513
1463.28	46.7398
1463.55	45.7052
1463.82	42.6276
1464.08	44.6701
1464.35	39.5701
1464.61	43.6805
1464.88	46.7663
1465.15	44.7397
1465.41	46.7509
1465.68	46.6645
1465.94	40.5019
1466.21	44.5791
1466.48	42.5507
1466.74	35.401
1467.01	40.4858
1467.27	41.4997
1467.54	47.6245
1467.8	41.4997
1468.07	39.4557
1468.34	38.4332
1468.6	40.4719
1468.87	47.6105
1469.13	44.5471
1469.4	40.4624
1469.67	44.5357
1469.93	41.4677
1470.2	43.4957
1470.46	49.6016
1470.73	44.499
1470.99	44.493
1471.26	43.4701
1471.53	42.4447
1471.79	41.417
1472.06	44.4656
1472.32	43.4434
1472.59	42.4227
1472.85	41.4026
1473.12	41.4006
1473.39	42.4148
1473.65	39.3539
1473.92	43.4185
1474.18	43.4125
1474.45	41.3733
1474.71	43.4078
1474.98	40.3577
1475.24	41.3775
1475.51	45.4486
1475.78	40.3575
1476.04	41.3707
1476.31	40.3468
1476.57	42.377
1476.84	40.3377
1477.1	43.3822
1477.37	43.3742
1477.63	45.4038
1477.9	43.3675
1478.16	45.3995
1478.43	40.3094
1478.69	41.3173
1478.96	40.2939
1479.22	40.2872
1479.49	42.3118
1479.76	46.3669
1480.02	37.2141
1480.29	40.2521
1480.55	40.2367
1480.82	38.1944
1481.08	45.289
1481.35	40.2109
1481.61	45.2755
1481.88	41.2208
1482.14	40.2119
1482.41	37.1739
1482.67	42.2565
1482.94	43.2777
1483.2	45.3073
1483.47	43.2814
1483.73	43.2835
1484	43.2829
1484.26	38.2034
1484.53	35.1419
1484.79	41.2081
1485.06	41.1629
1485.32	41.1059
1485.59	44.1196
1485.85	45.0953
1486.12	41.1475
1486.38	38.1183
1486.65	38.1321
1486.91	43.1541
1487.18	40.1359
1487.44	39.1279
1487.71	45.194
1487.97	38.0926
1488.24	43.1501
1488.5	44.1548
1488.77	36.0454
1489.03	37.0479
1489.3	38.052
1489.56	43.106
1489.83	39.0546
1490.09	44.1094
1490.36	40.0617
1490.62	41.0719
1490.89	46.1238
1491.15	42.0684
1491.42	40.0369
1491.68	42.0544
1491.95	39.0187
1492.21	42.0507
1492.48	44.0739
1492.74	43.0606
1493	35.9808
1493.27	41.0335
1493.53	44.0654
1493.8	42.0397
1494.06	43.0482
1494.33	39.0046
1494.59	40.0173
1494.86	40.0199
1495.12	43.0504
1495.39	42.0318
1495.65	42.0186
1495.92	37.9619
1496.18	41.9894
1496.45	41.9808
1496.71	40.9647
1496.97	38.9399
1497.24	40.9523
1497.5	39.9419
1497.77	40.95
1498.03	37.9191
1498.3	42.9634
1498.56	37.917
1498.82	35.8986
1499.09	39.9361
1499.35	39.937
1499.62	41.9576
1499.88	38.9322
1500.15	38.9348
1500.41	39.945
1500.68	39.9439
1500.94	40.9512
1501.2	39.9396
1501.47	40.9439
1501.73	38.9166
1502	37.9042
1502.26	44.9662
1502.52	38.9091
1502.79	45.9675
1503.05	39.9041
1503.32	43.9297
1503.58	38.8813
1503.85	45.9315
1504.11	42.9056
1504.37	40.8922
1504.64	41.9017
1504.9	41.9012
1505.17	44.9237
1505.43	37.8601
1505.7	40.8778
1505.96	43.889
1506.22	42.8649
1506.49	44.876
1506.75	36.8144
1507.02	38.8302
1507.28	39.8427
1507.54	39.8435
1507.81	40.8522
1508.07	41.8587
1508.34	41.855
1508.6	40.8444
1508.86	35.8064
1509.13	45.8833
1509.39	38.8296
1509.66	37.8206
1509.92	40.8425
1510.18	40.8463
1510.45	40.8482
1510.71	41.8471
1510.98	45.8678
1511.24	37.7987
1511.5	38.7941
1511.77	38.7774
1512.03	36.744
1512.29	41.7511
1512.56	40.7244
1512.82	35.6833
1513.08	40.6947
1513.35	39.6803
1513.61	43.6874
1513.88	41.6753
1514.14	40.6803
1514.4	38.6866
1514.67	41.7033
1514.93	39.6888
1515.2	43.6956
1515.46	40.6712
1515.72	38.6525
1515.99	41.65
1516.25	43.6427
1516.51	40.624
1516.78	37.6107
1517.04	37.6069
1517.3	42.6168
1517.57	39.6069
1517.83	41.6121
1518.09	43.6198
1518.36	38.6126
1518.62	39.6168
1518.88	39.6189
1519.15	41.6267
1519.41	42.6328
1519.67	39.6256
1519.94	42.6367
1520.2	39.6251
1520.47	38.6175
1520.73	38.6139
1520.99	37.6122
1521.26	37.6152
1521.52	36.6145
1521.78	36.615
1522.05	40.6262
1522.31	35.6052
1522.57	41.6195
1522.84	35.5952
1523.1	40.6055
1523.36	37.5895
1523.62	39.5822
1523.89	37.5612
1524.15	38.5521
1524.41	37.5414
1524.68	37.5339
1524.94	40.531
1525.2	43.5392
1525.47	37.5317
1525.73	32.5247
1525.99	39.5404
1526.26	36.5416
1526.52	43.5654
1526.78	38.5622
1527.05	38.5645
1527.31	38.5628
1527.57	35.5497
1527.84	40.5574
1528.1	36.5448
1528.36	38.5449
1528.63	37.5376
1528.89	40.5381
1529.15	38.5301
1529.41	40.5307
1529.68	38.5258
1529.94	38.5225
1530.2	35.5111
1530.47	40.5156
1530.73	42.5215
1530.99	42.5295
