#Acq. time (s)=	30
#Accumulations=	2
#Range (cm-¹)=	1200...2365
#Windows=	3
#Auto scanning=	Off
#Autofocus=	Off
#Macrospot=	Off
#AutoExposure=	Off
#Spike filter=	Multiple accum.
#Delay time (s)=	2
#Binning=	1
#Readout mode=	Signal
#DeNoise=	Off
#ICS correction=	On
#Dark correction=	Off
#Inst. Process=	Off
#Detector Gain=	Best Dynamic
#Detector ADC=	50 kHz HS
#Detector temperature (°C)=	-60.28
#Instrument=	LabRAM HR Evol
#Detector=	SIN-EM FIVIS
#Objective=	x100_VIS
#Grating=	1800 (450-850nm)
#ND Filter=	100%
#Laser=	532nm_Edge
#Hole=	49.98
#Temperature=	0
#Range=	Visible
#StageXY=	75x50mm Scan+
#StageZ=	Z motor
#X (µm)=	0
#Y (µm)=	0
#Z (µm)=	-263.7
#Full time(mm:ss)=	3:18
#Project=	21_11_04
#Sample=	BU19w
#Site=	
#Title=	BU19w-E-FF11b-FI05-V_1800 (450-850nm)_532nm_Edge_100%_x100_VIS_H50um_30sX2
#Remark=	
#Date=	04.11.2021 18:58
#Acquired=	04.11.2021 18:58:56
1202.73	20.9987
1203.01	19.9125
1203.29	23.121
1203.57	22.0416
1203.85	20.9583
1204.12	20.9654
1204.4	20.9629
1204.68	18.8073
1204.96	20.9476
1205.24	20.9388
1205.51	22.0017
1205.79	18.7731
1206.07	18.7644
1206.35	23.0425
1206.63	20.8899
1206.9	19.8124
1207.18	19.8079
1207.46	19.8038
1207.74	20.8707
1208.01	19.7953
1208.29	20.8591
1208.57	22.9925
1208.85	22.9882
1209.13	17.6409
1209.4	17.6399
1209.68	19.775
1209.96	18.7001
1210.23	19.7604
1210.51	20.8211
1210.79	22.9486
1211.07	22.9409
1211.35	18.6662
1211.62	19.7251
1211.9	18.6529
1212.18	21.8444
1212.46	21.838
1212.73	23.9627
1213.01	21.8293
1213.29	19.696
1213.57	25.0178
1213.84	18.6311
1214.12	23.9548
1214.4	21.8255
1214.68	16.5018
1214.95	19.6948
1215.23	17.5646
1215.51	19.69
1215.78	23.9398
1216.06	20.7393
1216.34	24.9831
1216.62	18.5981
1216.9	22.8424
1217.17	20.7114
1217.45	18.5825
1217.73	19.64
1218	22.8196
1218.28	21.7549
1218.56	20.6921
1218.84	22.8123
1219.11	19.6275
1219.39	18.5627
1219.67	19.6219
1219.94	19.6223
1220.22	22.8032
1220.5	20.6809
1220.77	20.677
1221.05	24.9149
1221.33	23.8489
1221.61	21.7213
1221.88	17.4754
1222.16	22.7599
1222.44	23.8062
1222.72	24.8537
1222.99	23.7844
1223.27	20.6067
1223.55	21.6549
1223.82	23.7606
1224.1	25.8679
1224.38	24.8074
1224.65	26.917
1224.93	21.6399
1225.21	21.6434
1225.49	21.6457
1225.76	25.8702
1226.04	23.7565
1226.32	25.8647
1226.59	26.9155
1226.87	24.7956
1227.15	24.7764
1227.42	26.8642
1227.7	20.5313
1227.98	22.6193
1228.25	25.7536
1228.53	25.7442
1228.81	22.6237
1229.08	23.7307
1229.36	21.6277
1229.64	24.7689
1229.91	23.7007
1230.19	22.6462
1230.47	28.9591
1230.74	25.7594
1231.02	23.6425
1231.3	23.6437
1231.57	23.6432
1231.85	25.7423
1232.13	21.5383
1232.4	22.588
1232.68	24.687
1232.96	26.7865
1233.23	23.6357
1233.51	24.6881
1233.79	23.6397
1234.06	23.6427
1234.34	23.6469
1234.62	21.5471
1234.89	24.7024
1235.17	21.5515
1235.45	22.6052
1235.72	22.6059
1236	21.5525
1236.27	21.5493
1236.55	20.4947
1236.83	21.539
1237.1	24.6823
1237.38	20.4737
1237.66	22.5656
1237.93	25.7047
1238.21	22.5496
1238.49	23.5938
1238.76	22.5419
1239.04	25.6842
1239.31	19.3926
1239.59	20.4399
1239.87	21.4877
1240.14	19.3917
1240.42	20.4408
1240.7	24.6352
1240.97	21.4902
1241.25	21.486
1241.52	24.6264
1241.8	20.4337
1242.08	20.4355
1242.35	21.4847
1242.63	22.5375
1242.91	21.4899
1243.18	21.489
1243.46	22.5387
1243.74	23.5881
1244.01	23.5865
1244.29	20.4401
1244.56	21.4851
1244.84	21.4793
1245.11	22.5209
1245.39	24.6064
1245.67	20.4133
1245.94	20.4119
1246.22	21.4575
1246.49	25.6449
1246.77	22.5033
1247.05	23.5484
1247.32	18.3147
1247.6	22.4954
1247.87	23.5337
1248.15	21.4401
1248.43	28.7614
1248.7	21.4421
1248.98	21.4422
1249.25	20.3948
1249.53	22.4865
1249.8	19.3471
1250.08	25.6152
1250.36	22.4732
1250.63	23.5136
1250.91	22.4644
1251.18	19.3265
1251.46	23.5011
1251.74	18.2752
1252.01	22.4482
1252.29	24.5316
1252.56	22.4393
1252.84	23.4797
1253.11	20.3483
1253.39	23.481
1253.66	19.31
1253.94	24.534
1254.22	24.5375
1254.49	22.45
1254.77	20.3626
1255.04	21.4075
1255.32	23.4953
1255.59	23.4955
1255.87	22.4526
1256.14	20.3666
1256.42	23.502
1256.7	27.6799
1256.97	24.5435
1257.25	24.5408
1257.52	26.6273
1257.8	25.581
1258.07	25.5789
1258.35	25.5732
1258.62	24.5267
1258.9	25.5726
1259.18	22.4426
1259.45	22.4532
1259.73	24.5396
1260	26.6224
1260.28	29.7439
1260.55	27.6486
1260.83	26.6001
1261.1	29.726
1261.38	32.8771
1261.65	32.9123
1261.93	35.0607
1262.2	36.0544
1262.48	37.0531
1262.75	42.2197
1263.03	42.2571
1263.31	42.2918
1263.58	44.4121
1263.85	40.284
1264.13	39.2094
1264.41	33.9682
1264.68	30.8311
1264.96	28.7425
1265.23	27.6895
1265.51	31.8678
1265.78	27.6896
1266.06	25.6027
1266.33	26.6522
1266.61	29.794
1266.88	22.482
1267.16	26.6723
1267.43	22.4952
1267.71	27.7371
1267.98	24.609
1268.26	27.7567
1268.53	27.7614
1268.81	25.67
1269.08	30.9104
1269.36	22.5236
1269.63	24.6122
1269.91	26.6996
1270.18	25.6472
1270.46	24.5951
1270.73	24.5924
1271.01	28.7757
1271.28	22.4966
1271.56	24.5936
1271.83	30.8811
1272.1	26.7029
1272.38	24.6165
1272.65	23.575
1272.93	25.6774
1273.2	26.7325
1273.48	26.7396
1273.75	26.7452
1274.03	25.6989
1274.3	28.8455
1274.58	27.7961
1274.85	27.798
1275.13	23.6054
1275.4	26.7574
1275.68	28.8622
1275.95	27.8185
1276.22	23.6239
1276.5	26.7781
1276.78	28.8842
1277.05	28.8913
1277.32	28.8983
1277.6	29.9556
1277.87	32.0638
1278.15	32.0721
1278.42	29.9751
1278.7	29.9806
1278.97	31.0332
1279.24	34.1869
1279.52	31.0277
1279.79	34.1804
1280.07	37.3371
1280.34	42.5989
1280.62	44.7111
1280.89	52.0918
1281.17	73.1549
1281.44	81.5762
1281.71	93.1591
1281.99	135.286
1282.26	178.442
1282.54	223.644
1282.81	296.004
1283.09	383.049
1283.36	440.851
1283.63	389.241
1283.91	295.399
1284.18	200.719
1284.46	139.635
1284.73	95.3333
1285.01	66.8603
1285.28	52.1125
1285.55	39.4882
1285.83	40.5476
1286.1	37.3782
1286.38	34.2188
1286.65	32.1122
1286.93	31.0559
1287.2	29.9976
1287.47	28.9405
1287.75	28.9394
1288.02	28.9403
1288.3	26.8364
1288.57	22.6297
1288.84	30.0029
1289.12	24.7437
1289.39	23.6954
1289.67	24.7539
1289.94	21.5961
1290.21	24.7534
1290.49	27.9111
1290.76	22.6444
1291.04	22.6443
1291.31	23.6971
1291.58	23.6961
1291.86	25.8041
1292.13	24.7517
1292.4	22.6423
1292.68	24.7485
1292.95	23.6996
1293.23	23.7103
1293.5	22.6654
1293.77	25.8368
1294.05	26.8901
1294.32	25.8357
1294.59	24.7809
1294.87	22.6803
1295.14	26.9132
1295.42	24.8183
1295.69	23.777
1295.96	22.7248
1296.24	22.7256
1296.51	22.7249
1296.79	25.8917
1297.06	23.7736
1297.33	24.8249
1297.61	24.8188
1297.88	24.8166
1298.15	18.482
1298.43	23.7588
1298.7	25.8668
1298.97	26.9187
1299.25	23.7498
1299.52	21.6409
1299.79	25.8675
1300.07	25.869
1300.34	21.6452
1300.61	24.8117
1300.89	22.7003
1301.16	20.5912
1301.44	22.707
1301.71	22.7096
1301.98	22.7109
1302.26	21.6547
1302.53	21.6538
1302.8	19.5395
1303.08	21.6487
1303.35	22.7025
1303.62	20.5907
1303.9	21.6469
1304.17	22.7028
1304.44	21.6453
1304.72	23.7534
1304.99	20.5821
1305.26	23.7433
1305.54	18.4627
1305.81	24.7874
1306.08	22.6748
1306.36	21.6194
1306.63	21.6207
1306.9	21.6219
1307.18	23.7315
1307.45	23.7311
1307.72	22.6775
1307.99	22.6768
1308.27	21.6222
1308.54	22.6799
1308.81	21.6282
1309.09	21.6315
1309.36	21.6342
1309.63	22.69
1309.91	21.6333
1310.18	23.7434
1310.45	21.6335
1310.73	22.6901
1311	20.5804
1311.27	19.526
1311.54	21.6403
1311.82	25.8672
1312.09	21.6462
1312.36	23.7589
1312.64	22.6994
1312.91	21.6417
1313.18	22.6963
1313.45	21.6388
1313.73	21.6381
1314	21.6389
1314.27	22.6964
1314.55	20.5876
1314.82	22.7019
1315.09	24.8169
1315.36	20.5955
1315.64	21.6525
1315.91	23.7636
1316.18	19.538
1316.46	20.5934
1316.73	19.5371
1317	20.5949
1317.28	19.5412
1317.55	20.5991
1317.82	22.713
1318.09	19.5444
1318.37	21.6576
1318.64	20.6008
1318.91	22.713
1319.18	21.6558
1319.46	23.7692
1319.73	21.6572
1320	22.7131
1320.27	23.7671
1320.55	18.482
1320.82	18.4773
1321.09	16.3606
1321.36	18.4675
1321.64	21.628
1321.91	21.624
1322.18	20.5663
1322.45	20.5636
1322.73	22.668
1323	21.6142
1323.27	23.7245
1323.54	19.5075
1323.82	20.5615
1324.09	21.6163
1324.36	19.5067
1324.63	22.6718
1324.91	23.7232
1325.18	19.4982
1325.45	19.4886
1325.72	24.7374
1325.99	20.5181
1326.27	21.5662
1326.54	22.6213
1326.81	23.6891
1327.08	21.5925
1327.36	18.439
1327.63	22.6621
1327.9	25.8347
1328.17	17.405
1328.45	22.6852
1328.72	21.6258
1328.99	20.5735
1329.26	21.6283
1329.53	22.682
1329.81	19.515
1330.08	20.5666
1330.35	18.4533
1330.62	23.7193
1330.9	23.7114
1331.17	21.5939
1331.44	21.5854
1331.71	22.6322
1331.98	22.6257
1332.26	17.3583
1332.53	24.7134
1332.8	19.4488
1333.07	19.4427
1333.34	18.3865
1333.62	20.482
1333.89	20.4767
1334.16	19.4216
1334.43	21.5165
1334.7	20.463
1334.98	22.5574
1335.25	23.6024
1335.52	18.3544
1335.79	21.4975
1336.06	22.5431
1336.34	22.5402
1336.61	19.3932
1336.88	21.4879
1337.15	23.5822
1337.42	22.5304
1337.69	22.5237
1337.96	22.5202
1338.24	20.4224
1338.51	19.372
1338.78	20.4182
1339.05	21.4654
1339.32	22.514
1339.6	22.5149
1339.87	21.4681
1340.14	23.5636
1340.41	20.422
1340.68	21.4684
1340.95	20.42
1341.23	21.4652
1341.5	20.4153
1341.77	19.3647
1342.04	23.546
1342.31	22.4935
1342.58	21.4429
1342.86	19.3492
1343.13	19.3483
1343.4	24.5772
1343.67	18.3023
1343.94	24.5777
1344.21	22.485
1344.48	22.4819
1344.76	20.3865
1345.03	19.3358
1345.3	20.3751
1345.57	19.3246
1345.84	22.4488
1346.11	17.221
1346.39	22.433
1346.66	21.383
1346.93	20.334
1347.2	18.2444
1347.47	22.4113
1347.74	20.3245
1348.01	24.4917
1348.28	19.2785
1348.55	20.317
1348.83	24.48
1349.1	25.5169
1349.37	24.471
1349.64	23.4255
1349.91	21.3394
1350.18	23.4163
1350.45	17.1677
1350.73	19.2448
1351	23.4007
1351.27	23.3973
1351.54	20.2768
1351.81	21.3179
1352.08	22.3617
1352.35	23.4084
1352.62	20.291
1352.89	25.5086
1353.17	21.3653
1353.44	25.5282
1353.71	21.3322
1353.98	22.3443
1354.25	21.2993
1354.52	20.2629
1354.79	24.4148
1355.06	20.2511
1355.33	24.4095
1355.6	19.2243
1355.88	19.2185
1356.15	24.4101
1356.42	24.408
1356.69	19.2132
1356.96	21.2878
1357.23	25.4378
1357.5	25.4336
1357.77	22.3153
1358.04	20.2359
1358.31	25.4203
1358.58	22.3027
1358.86	24.3736
1359.13	21.2593
1359.4	23.3294
1359.67	26.4316
1359.94	24.3519
1360.21	20.2019
1360.48	24.3431
1360.75	21.2347
1361.02	22.2703
1361.29	25.3763
1361.56	25.3743
1361.83	23.2999
1362.1	22.2624
1362.37	22.2607
1362.65	24.3321
1362.92	25.3707
1363.19	21.2322
1363.46	21.2345
1363.73	23.3078
1364	25.378
1364.27	25.3759
1364.54	27.4434
1364.81	27.4377
1365.08	25.3611
1365.35	28.4599
1365.62	22.2456
1365.89	21.2061
1366.16	24.3031
1366.43	28.4306
1366.7	19.1212
1366.97	23.2531
1367.24	23.2536
1367.52	23.2565
1367.79	27.3927
1368.06	26.3607
1368.33	36.7004
1368.6	41.8726
1368.87	37.7399
1369.14	36.7048
1369.41	31.5311
1369.68	28.4265
1369.95	27.3876
1370.22	25.3157
1370.49	28.4113
1370.76	22.2072
1371.03	28.3957
1371.3	26.321
1371.57	23.2154
1371.84	26.3013
1372.11	28.3558
1372.38	26.2881
1372.65	26.2843
1372.92	29.3728
1373.19	28.3391
1373.46	31.4278
1373.73	26.2737
1374	31.4233
1374.27	29.3607
1374.54	30.3876
1374.81	30.3868
1375.08	32.4501
1375.35	28.3303
1375.62	32.4525
1375.89	29.3576
1376.16	31.4102
1376.43	36.5488
1376.7	32.4171
1376.97	34.473
1377.24	31.3922
1377.51	31.4029
1377.78	34.5072
1378.05	36.5882
1378.32	36.5995
1378.59	33.5079
1378.86	35.5664
1379.13	37.6232
1379.4	40.7087
1379.67	37.6058
1379.94	37.5776
1380.21	40.6442
1380.48	38.5666
1380.75	43.7129
1381.02	42.6798
1381.29	42.6627
1381.56	46.7515
1381.83	43.6493
1382.1	44.6602
1382.37	46.6946
1382.64	47.7073
1382.91	47.6919
1383.18	45.6319
1383.45	51.7743
1383.72	61.0012
1383.99	54.8525
1384.26	67.1667
1384.53	70.2569
1384.8	80.5475
1385.07	93.9123
1385.34	129.872
1385.61	169.928
1385.87	246.993
1386.14	407.258
1386.41	620.932
1386.68	917.688
1386.95	913.906
1387.22	592.976
1387.49	343.817
1387.76	180.476
1388.03	123.426
1388.3	93.8403
1388.57	70.332
1388.84	54.9258
1389.11	53.916
1389.38	44.666
1389.65	45.666
1389.92	40.4958
1390.19	37.4353
1390.46	32.2882
1390.73	36.3826
1390.99	31.2581
1391.26	33.3012
1391.53	31.2438
1391.8	30.2119
1392.07	27.1346
1392.34	26.1069
1392.61	29.1747
1392.88	31.2189
1393.15	28.1456
1393.42	30.19
1393.69	27.1179
1393.96	25.0697
1394.23	28.138
1394.5	26.092
1394.76	27.1205
1395.03	25.0771
1395.3	26.1029
1395.57	28.1502
1395.84	25.0776
1396.11	27.122
1396.38	25.0719
1396.65	28.1378
1396.92	24.0402
1397.19	28.1285
1397.46	24.0361
1397.73	21.9913
1397.99	25.0624
1398.26	23.0187
1398.53	26.0894
1398.8	24.046
1399.07	25.0728
1399.34	19.958
1399.61	20.9822
1399.88	22.0074
1400.14	28.1549
1400.41	25.0879
1400.68	24.0646
1400.95	27.1382
1401.22	28.1637
1401.49	26.1206
1401.76	25.1081
1402.03	18.9705
1402.3	26.1619
1402.57	22.0662
1402.83	25.1509
1403.1	25.1527
1403.37	28.2295
1403.64	28.2171
1403.91	25.1361
1404.18	23.0843
1404.45	28.2113
1404.72	24.1042
1404.99	24.0999
1405.25	30.2477
1405.52	32.2931
1405.79	30.239
1406.06	30.2362
1406.33	29.2114
1406.6	34.3384
1406.87	39.467
1407.13	37.4194
1407.4	40.4975
1407.67	53.8292
1407.94	56.9085
1408.21	64.0907
1408.48	67.173
1408.75	57.9483
1409.01	48.7218
1409.28	34.364
1409.55	36.4174
1409.82	30.2585
1410.09	31.2767
1410.36	23.066
1410.62	23.06
1410.89	26.1298
1411.16	26.1259
1411.43	24.0748
1411.7	26.1258
1411.97	26.1316
1412.23	25.1168
1412.5	25.1451
1412.77	22.0882
1413.04	22.084
1413.31	21.0235
1413.58	19.9939
1413.84	21.0313
1414.11	22.0725
1414.38	24.1256
1414.65	21.0465
1414.92	23.1001
1415.19	23.1004
1415.45	24.1289
1415.72	22.0774
1415.99	21.0527
1416.26	20.0278
1416.53	21.0574
1416.8	21.06
1417.06	20.0352
1417.33	20.0369
1417.6	19.0099
1417.87	20.0379
1418.14	20.0397
1418.4	25.1778
1418.67	19.0132
1418.94	19.0121
1419.21	17.9815
1419.48	21.0597
1419.74	20.029
1420.01	24.133
1420.28	21.0476
1420.55	17.9639
1420.82	22.0668
1421.08	21.0405
1421.35	22.0702
1421.62	21.0526
1421.89	23.112
1422.16	20.0402
1422.42	24.1664
1422.69	21.1048
1422.96	20.0778
1423.23	24.0783
1423.5	21.0303
1423.76	22.036
1424.03	20.9945
1424.3	16.9121
1424.57	21.0093
1424.83	21.037
1425.1	22.0415
1425.37	17.9536
1425.64	24.1075
1425.91	18.9765
1426.17	22.0481
1426.44	22.0426
1426.71	18.9615
1426.98	24.0785
1427.24	19.9714
1427.51	20.9916
1427.78	20.9895
1428.05	20.9894
1428.32	24.0622
1428.58	22.0162
1428.85	17.922
1429.12	17.9246
1429.38	18.9525
1429.65	21.0067
1429.92	16.9122
1430.19	18.9666
1430.46	22.051
1430.72	20.0083
1430.99	23.0921
1431.26	23.0939
1431.53	18.9864
1431.79	18.982
1432.06	20.0042
1432.33	16.9235
1432.6	19.9931
1432.86	19.9854
1433.13	21.0015
1433.4	22.0192
1433.67	20.992
1433.93	22.0199
1434.2	19.9806
1434.47	18.957
1434.73	19.9823
1435	17.9327
1435.27	22.0309
1435.54	19.9805
1435.8	24.0776
1436.07	21.0023
1436.34	18.9516
1436.6	19.9743
1436.87	19.9733
1437.14	18.9479
1437.41	17.9222
1437.67	17.9225
1437.94	19.9732
1438.21	17.9269
1438.48	17.928
1438.74	23.0514
1439.01	19.9803
1439.28	23.0588
1439.54	18.9645
1439.81	25.12
1440.08	19.9953
1440.35	22.047
1440.61	15.8951
1440.88	17.9458
1441.15	17.9435
1441.41	22.0424
1441.68	15.8926
1441.95	18.9704
1442.21	19.9987
1442.48	18.9733
1442.75	22.0467
1443.02	19.9929
1443.28	19.9907
1443.55	16.9142
1443.82	19.99
1444.08	19.9942
1444.35	17.9481
1444.62	18.9798
1444.88	17.955
1445.15	20.0054
1445.42	18.9779
1445.69	23.0794
1445.95	20.0007
1446.22	19.9993
1446.49	18.9723
1446.75	18.9707
1447.02	17.9432
1447.28	18.9665
1447.55	22.0411
1447.82	17.9425
1448.09	18.9721
1448.35	18.9745
1448.62	20.0006
1448.89	17.9483
1449.15	16.9209
1449.42	15.8931
1449.69	15.8904
1449.95	17.9389
1450.22	16.9126
1450.49	17.9363
1450.75	21.0095
1451.02	19.9828
1451.29	18.9562
1451.55	21.0039
1451.82	19.9782
1452.09	18.9537
1452.35	18.9543
1452.62	16.9069
1452.88	18.9585
1453.15	17.9346
1453.42	23.0577
1453.68	17.9326
1453.95	18.9572
1454.22	16.9079
1454.48	18.9573
1454.75	21.0054
1455.02	17.9307
1455.28	19.9832
1455.55	15.8863
1455.81	21.0116
1456.08	18.961
1456.35	17.9335
1456.61	22.0286
1456.88	17.9287
1457.15	13.8298
1457.41	19.9753
1457.68	16.9022
1457.95	17.9269
1458.21	16.9034
1458.48	18.9535
1458.74	18.9541
1459.01	16.9059
1459.28	16.9056
1459.54	16.9047
1459.81	18.9525
1460.08	21
1460.34	20.9981
1460.61	18.9471
1460.87	19.9689
1461.14	20.9903
1461.41	16.8919
1461.67	16.8891
1461.94	18.9327
1462.2	18.9288
1462.47	19.9476
1462.74	16.8749
1463	21.9833
1463.27	19.9352
1463.54	20.9608
1463.8	15.8568
1464.07	17.9094
1464.33	19.9634
1464.6	16.9003
1464.86	16.8603
1465.13	17.8641
1465.4	17.8554
1465.66	17.8628
1465.93	19.907
1466.19	15.8172
1466.46	18.8708
1466.73	15.814
1466.99	16.8334
1467.26	17.8524
1467.52	19.8915
1467.79	17.851
1468.05	18.8708
1468.32	20.9103
1468.59	18.8687
1468.85	18.8666
1469.12	17.8442
1469.38	20.8983
1469.65	16.817
1469.92	15.7954
1470.18	18.8505
1470.45	18.8486
1470.71	15.7911
1470.98	17.825
1471.24	21.8957
1471.51	18.8387
1471.77	16.8014
1472.04	15.7827
1472.31	20.8734
1472.57	17.818
1472.84	19.8521
1473.1	15.7773
1473.37	18.8287
1473.64	18.8269
1473.9	18.8263
1474.17	15.7742
1474.43	18.8293
1474.7	16.7942
1474.96	16.794
1475.23	17.8107
1475.49	15.7734
1475.76	16.789
1476.02	16.7877
1476.29	18.8204
1476.55	20.8513
1476.82	18.8148
1477.09	19.831
1477.35	17.7966
1477.62	14.7449
1477.88	18.8093
1478.15	16.773
1478.41	16.7706
1478.68	18.8004
1478.94	17.7811
1479.21	18.7933
1479.47	17.7738
1479.74	15.7379
1480	19.7931
1480.27	16.7441
1480.53	19.7859
1480.8	18.7688
1481.07	20.7975
1481.33	20.8004
1481.6	14.715
1481.86	15.7329
1482.12	15.7357
1482.39	17.7673
1482.65	15.7379
1482.92	13.7084
1483.19	19.8017
1483.45	22.8477
1483.72	17.766
1483.98	19.7868
1484.25	16.7284
1484.51	19.7453
1484.78	16.6942
1485.04	17.6932
1485.31	16.702
1485.57	17.7325
1485.84	16.7257
1486.1	19.7555
1486.37	17.7283
1486.63	16.7203
1486.9	17.7313
1487.16	23.8046
1487.43	20.7622
1487.69	17.7212
1487.96	20.7551
1488.22	20.7503
1488.49	18.722
1488.75	18.7195
1489.02	19.7295
1489.28	17.7046
1489.54	15.6808
1489.81	16.6924
1490.07	16.6912
1490.34	17.6997
1490.6	16.685
1490.87	18.705
1491.13	17.6928
1491.4	18.7034
1491.66	17.6931
1491.93	17.693
1492.19	16.6812
1492.46	18.7024
1492.72	16.6805
1492.99	17.6905
1493.25	18.7005
1493.52	15.6679
1493.78	16.6795
1494.04	16.681
1494.31	15.6702
1494.57	16.6794
1494.84	17.6861
1495.1	16.6697
1495.37	17.6743
1495.63	15.6511
1495.9	16.6583
1496.16	15.6469
1496.43	20.6911
1496.69	17.6624
1496.96	15.6439
1497.22	16.6524
1497.48	18.6702
1497.75	17.661
1498.01	19.6797
1498.28	16.6526
1498.54	16.6532
1498.81	17.6635
1499.07	18.6744
1499.33	17.6667
1499.6	16.6581
1499.86	18.6774
1500.13	19.6864
1500.39	17.6669
1500.66	17.666
1500.92	14.6345
1501.18	17.6606
1501.45	20.6875
1501.71	21.696
1501.98	15.6405
1502.24	17.6555
1502.51	14.6253
1502.77	16.6412
1503.03	16.6377
1503.3	21.6778
1503.56	18.6548
1503.83	16.6391
1504.09	17.648
1504.35	17.6477
1504.62	19.6629
1504.88	15.6275
1505.15	17.6407
1505.41	20.6556
1505.68	16.6233
1505.94	17.6302
1506.2	15.6147
1506.47	16.6253
1506.73	16.626
1507	18.6423
1507.26	18.6427
1507.52	18.6417
1507.79	18.6402
1508.05	17.6327
1508.32	18.641
1508.58	17.6339
1508.84	18.6415
1509.11	20.6562
1509.37	16.6264
1509.63	18.6459
1509.9	17.6346
1510.16	17.6316
1510.43	17.6277
1510.69	18.6306
1510.95	18.6245
1511.22	17.6089
1511.48	19.6106
1511.75	19.6015
1512.01	16.5773
1512.27	16.5729
1512.54	17.5731
1512.8	14.5575
1513.07	14.5553
1513.33	22.5868
1513.59	15.5674
1513.86	18.5846
1514.12	15.5696
1514.38	19.5844
1514.65	19.5785
1514.91	20.5781
1515.17	20.572
1515.44	19.5626
1515.7	16.5484
1515.96	17.5494
1516.23	17.548
1516.49	16.544
1516.76	19.5511
1517.02	16.5433
1517.28	16.5441
1517.55	18.5522
1517.81	17.5513
1518.07	18.5554
1518.34	16.5505
1518.6	20.5643
1518.86	15.5499
1519.13	18.5608
1519.39	19.5642
1519.65	17.5565
1519.92	19.5615
1520.18	16.5521
1520.44	16.5535
1520.71	17.5585
1520.97	19.5663
1521.23	19.5661
1521.5	19.5648
1521.76	14.5467
1522.02	17.5544
1522.29	19.5585
1522.55	16.5472
1522.81	18.5484
1523.08	17.5396
1523.34	18.536
1523.6	16.5284
1523.87	18.5284
1524.13	21.5295
1524.39	16.5227
1524.66	16.524
1524.92	15.5232
1525.18	17.528
1525.45	17.531
1525.71	20.5411
1525.97	18.5413
1526.24	18.5438
1526.5	18.5441
1526.76	18.5424
1527.02	17.5385
1527.29	16.535
1527.55	18.5378
1527.81	19.5378
1528.08	18.5339
1528.34	16.5286
1528.6	17.5292
1528.87	18.5304
1529.13	19.5312
1529.39	15.5228
1529.65	17.5242
1529.92	15.5221
1530.18	15.5246
1530.44	18.5332
1530.71	19.5384
