#Acq. time (s)=	30
#Accumulations=	2
#Range (cm-¹)=	1200...2365
#Windows=	3
#Auto scanning=	Off
#Autofocus=	Off
#Macrospot=	Off
#AutoExposure=	Off
#Spike filter=	Multiple accum.
#Delay time (s)=	2
#Binning=	1
#Readout mode=	Signal
#DeNoise=	Off
#ICS correction=	On
#Dark correction=	Off
#Inst. Process=	Off
#Detector Gain=	Best Dynamic
#Detector ADC=	50 kHz HS
#Detector temperature (°C)=	-60.09
#Instrument=	LabRAM HR Evol
#Detector=	SIN-EM FIVIS
#Objective=	x100_VIS_LWD
#Grating=	1800 (450-850nm)
#ND Filter=	100%
#Laser=	532nm_Edge
#Hole=	100.021
#Temperature=	0
#Range=	Visible
#StageXY=	75x50mm Scan+
#StageZ=	Z motor
#X (µm)=	0
#Y (µm)=	0
#Z (µm)=	-9.7
#Full time(mm:ss)=	3:23
#Project=	21_11_26
#Sample=	BU19(2)w
#Site=	
#Title=	BU19(2)w-A-FF1-FI05-V_1800 (450-850nm)_532nm_Edge_100%_x100_VIS_LWD_H100um_30sX2
#Remark=	
#Date=	26.11.2021 13:31
#Acquired=	26.11.2021 13:31:21
1202.72	126.362
1203	131.929
1203.28	120.122
1203.56	125.433
1203.84	116.729
1204.11	118.823
1204.39	123.076
1204.67	116.632
1204.95	114.495
1205.23	120.921
1205.5	116.577
1205.78	117.602
1206.06	115.4
1206.34	109.979
1206.61	116.362
1206.89	114.162
1207.17	111.965
1207.45	116.205
1207.73	110.821
1208	110.794
1208.28	111.846
1208.56	112.892
1208.84	116.068
1209.11	109.618
1209.39	108.52
1209.67	109.575
1209.95	115.985
1210.23	108.491
1210.5	106.33
1210.78	109.491
1211.06	104.107
1211.34	105.14
1211.61	109.368
1211.89	112.536
1212.17	107.158
1212.45	108.182
1212.72	103.889
1213	103.858
1213.28	100.631
1213.56	99.5457
1213.83	109.116
1214.11	105.898
1214.39	99.5149
1214.67	110.164
1214.94	103.777
1215.22	102.711
1215.5	102.707
1215.78	101.636
1216.05	105.885
1216.33	98.4081
1216.61	95.181
1216.89	106.836
1217.16	102.541
1217.44	109.948
1217.72	105.666
1218	102.449
1218.27	100.301
1218.55	104.524
1218.83	101.318
1219.1	103.428
1219.38	110.847
1219.66	108.714
1219.94	103.396
1220.21	99.1343
1220.49	95.9485
1220.77	105.494
1221.04	101.245
1221.32	93.8111
1221.6	106.517
1221.88	93.7763
1222.15	94.8082
1222.43	89.4737
1222.71	108.492
1222.98	98.9122
1223.26	92.5173
1223.54	106.221
1223.81	105.119
1224.09	100.855
1224.37	96.5943
1224.65	100.794
1224.92	92.3278
1225.2	96.5372
1225.48	104.978
1225.76	100.768
1226.03	98.6662
1226.31	103.958
1226.59	103.952
1226.86	87.0505
1227.14	98.6452
1227.42	107.071
1227.69	92.2467
1227.97	97.4269
1228.25	96.3141
1228.52	103.627
1228.8	90.9083
1229.08	105.55
1229.35	96.0841
1229.63	92.1078
1229.91	95.4698
1230.18	104.871
1230.46	94.2348
1230.74	102.626
1231.01	98.4237
1231.29	96.2597
1231.57	97.1206
1231.84	98.1886
1232.12	93.9827
1232.4	98.182
1232.67	98.1697
1232.95	90.8122
1233.23	96.0593
1233.5	99.2007
1233.78	97.0966
1234.06	100.253
1234.33	92.9071
1234.61	103.423
1234.89	95.0305
1235.16	98.1987
1235.44	98.2059
1235.71	98.2143
1235.99	106.637
1236.27	90.8732
1236.54	90.8711
1236.82	103.474
1237.1	93.9975
1237.37	101.333
1237.65	103.399
1237.93	96.01
1238.2	93.8756
1238.48	89.6434
1238.76	98.0027
1239.03	100.072
1239.31	95.8602
1239.58	104.234
1239.86	95.8358
1240.14	96.8771
1240.41	97.9215
1240.69	93.7276
1240.97	89.5367
1241.24	95.8304
1241.52	91.6401
1241.79	94.7758
1242.07	99.9981
1242.35	105.226
1242.62	94.7476
1242.9	98.9448
1243.18	104.199
1243.45	97.9225
1243.73	108.403
1244	101.066
1244.28	90.5882
1244.56	103.166
1244.83	95.8212
1245.11	103.148
1245.39	102.077
1245.66	93.6697
1245.94	98.8732
1246.21	105.121
1246.49	94.6378
1246.76	99.8633
1247.04	99.8632
1247.32	99.8605
1247.59	97.7582
1247.87	94.6158
1248.14	94.605
1248.42	101.892
1248.7	96.642
1248.97	103.958
1249.25	93.5042
1249.52	98.7405
1249.8	94.5496
1250.08	95.5917
1250.35	95.5922
1250.63	93.4802
1250.9	92.4099
1251.18	99.7049
1251.45	95.5047
1251.73	98.6217
1252.01	102.782
1252.28	92.319
1252.56	97.5224
1252.83	103.768
1253.11	99.5699
1253.39	101.637
1253.66	97.4529
1253.94	106.844
1254.21	96.424
1254.49	96.4416
1254.76	93.3296
1255.04	92.2928
1255.31	95.4248
1255.59	101.697
1255.87	97.5195
1256.14	97.5141
1256.42	105.872
1256.69	101.702
1256.97	102.761
1257.24	117.389
1257.52	106.938
1257.79	102.744
1258.07	106.912
1258.35	104.814
1258.62	108.981
1258.9	107.924
1259.17	101.636
1259.45	106.851
1259.72	113.126
1260	106.878
1260.27	95.4334
1260.55	110.026
1260.82	119.394
1261.1	116.22
1261.37	126.623
1261.65	125.559
1261.92	123.489
1262.2	129.864
1262.48	124.806
1262.75	137.438
1263.02	139.301
1263.3	130.787
1263.58	129.684
1263.85	123.548
1264.13	122.597
1264.4	119.575
1264.68	115.451
1264.95	111.196
1265.23	119.529
1265.5	117.438
1265.78	111.157
1266.05	109.046
1266.33	113.225
1266.6	118.457
1266.88	99.6607
1267.15	110.131
1267.43	102.838
1267.7	103.911
1267.98	103.94
1268.25	103.974
1268.53	100.879
1268.8	112.435
1269.08	105.124
1269.35	100.95
1269.63	96.7709
1269.9	104.099
1270.18	108.265
1270.45	112.42
1270.73	104.02
1271	94.5739
1271.28	102.929
1271.55	102.922
1271.83	110.232
1272.1	99.7754
1272.38	106.078
1272.65	114.483
1272.93	116.621
1273.2	105.127
1273.47	109.345
1273.75	110.422
1274.03	114.645
1274.3	116.772
1274.57	113.644
1274.85	105.257
1275.12	115.741
1275.4	107.35
1275.67	108.41
1275.95	110.526
1276.22	108.446
1276.5	113.72
1276.77	110.591
1277.05	104.311
1277.32	111.677
1277.6	120.107
1277.87	115.933
1278.14	128.572
1278.42	115.983
1278.69	119.158
1278.97	123.398
1279.24	127.625
1279.52	136.062
1279.79	140.261
1280.07	149.716
1280.34	169.681
1280.61	193.863
1280.89	238.053
1281.16	296.981
1281.44	362.288
1281.71	461.334
1281.99	560.343
1282.26	684.538
1282.53	759.344
1282.81	823.653
1283.08	812.989
1283.36	723.159
1283.63	613.201
1283.91	488.978
1284.18	359.718
1284.45	283.159
1284.73	232.121
1285	180.529
1285.28	167.881
1285.55	146.735
1285.83	140.367
1286.1	147.739
1286.37	125.656
1286.65	115.124
1286.92	110.89
1287.2	117.205
1287.47	116.145
1287.75	116.127
1288.02	101.372
1288.29	104.518
1288.57	104.516
1288.84	108.728
1289.12	96.1057
1289.39	107.698
1289.66	103.506
1289.94	110.896
1290.21	102.493
1290.49	101.456
1290.76	97.2419
1291.03	95.1243
1291.31	96.1717
1291.58	101.436
1291.86	100.381
1292.13	90.8984
1292.4	102.484
1292.68	97.2237
1292.95	100.377
1293.22	91.9439
1293.5	103.533
1293.77	94.0847
1294.05	101.501
1294.32	97.3259
1294.59	85.737
1294.87	98.3913
1295.14	101.547
1295.42	92.0733
1295.69	93.1668
1295.96	88.9946
1296.24	98.5657
1296.51	88.0375
1296.79	93.3312
1297.06	94.3903
1297.33	92.2659
1297.61	99.6466
1297.88	94.3433
1298.15	97.4903
1298.43	94.2962
1298.7	96.4191
1298.97	99.5792
1299.25	89.0036
1299.52	90.0468
1299.79	94.2541
1300.07	95.3083
1300.34	93.2131
1300.62	93.2223
1300.89	86.8892
1301.16	90.0522
1301.44	91.1042
1301.71	88.9966
1301.98	85.8431
1302.25	96.4182
1302.53	93.2572
1302.8	85.8652
1303.08	84.8073
1303.35	86.9139
1303.62	84.7917
1303.9	92.1677
1304.17	91.1081
1304.44	82.6621
1304.72	92.1655
1304.99	91.1079
1305.26	84.7615
1305.54	79.468
1305.81	98.4466
1306.08	95.2587
1306.35	85.741
1306.63	84.6689
1306.9	83.6064
1307.18	85.7149
1307.45	86.7767
1307.72	88.8884
1308	87.832
1308.27	86.7762
1308.54	85.7257
1308.81	97.322
1309.09	87.8339
1309.36	77.2979
1309.63	83.639
1309.91	84.7059
1310.18	93.1563
1310.45	84.7108
1310.73	85.7602
1311	84.7046
1311.27	83.6525
1311.55	82.6012
1311.82	84.7154
1312.09	86.833
1312.37	81.569
1312.64	82.6364
1312.91	81.5858
1313.18	77.3582
1313.46	91.07
1313.73	81.5652
1314	82.613
1314.28	78.3844
1314.55	94.2167
1314.82	86.8328
1315.09	81.5625
1315.37	85.7956
1315.64	81.5816
1315.91	85.8163
1316.18	77.3772
1316.46	82.6544
1316.73	80.5365
1317	86.8692
1317.28	78.4178
1317.55	91.09
1317.82	83.7092
1318.09	84.7732
1318.37	82.6654
1318.64	86.8941
1318.91	86.8957
1319.18	85.8392
1319.46	80.554
1319.73	77.3811
1320	88.9979
1320.28	78.4391
1320.55	82.6655
1320.82	81.6041
1321.09	84.7606
1321.37	88.9653
1321.64	77.3268
1321.91	83.6343
1322.18	81.5083
1322.46	77.2652
1322.73	78.309
1323	84.6255
1323.27	88.8303
1323.55	86.7042
1323.82	81.4418
1324.09	82.4994
1324.36	74.0646
1324.64	81.4429
1324.91	84.6071
1325.18	79.3321
1325.45	89.8816
1325.73	83.5328
1326	83.4948
1326.27	83.4464
1326.54	80.2294
1326.81	90.7265
1327.09	86.5111
1327.36	81.2776
1327.63	81.3306
1327.9	82.4124
1328.18	85.6023
1328.45	84.5808
1328.72	86.7226
1328.99	82.5298
1329.27	85.7023
1329.54	82.5264
1329.81	79.3695
1330.08	86.7508
1330.35	86.7432
1330.63	74.0739
1330.9	80.3875
1331.17	82.4767
1331.44	82.4516
1331.71	81.3655
1331.99	83.4359
1332.26	82.3538
1332.53	86.5406
1332.8	85.4617
1333.07	83.3281
1333.35	86.4524
1333.62	80.1168
1333.89	81.1428
1334.16	87.4223
1334.43	80.0459
1334.71	72.6745
1334.98	76.8552
1335.25	89.4326
1335.52	83.119
1335.79	77.8573
1336.07	79.941
1336.34	77.8297
1336.61	82.0119
1336.88	84.0973
1337.15	75.7003
1337.43	83.0304
1337.7	77.7821
1337.97	73.5808
1338.24	80.8966
1338.51	81.925
1338.78	87.1495
1339.06	83.9929
1339.33	90.266
1339.6	77.6978
1339.87	83.983
1340.14	82.9399
1340.42	78.7524
1340.69	79.8021
1340.96	91.3244
1341.23	79.8021
1341.5	82.9397
1341.77	80.839
1342.04	77.6884
1342.32	78.7223
1342.59	83.9381
1342.86	80.7762
1343.13	85.9851
1343.4	85.9727
1343.67	73.4151
1343.95	79.6872
1344.22	80.7318
1344.49	76.5494
1344.76	91.1909
1345.03	79.6787
1345.3	74.4371
1345.58	78.6013
1345.85	77.531
1346.12	81.69
1346.39	81.6618
1346.66	83.7085
1346.93	83.6812
1347.2	78.4393
1347.47	87.8008
1347.75	80.4773
1348.02	83.5895
1348.29	80.4512
1348.56	93.9929
1348.83	87.7325
1349.1	79.3822
1349.37	82.4923
1349.65	84.5589
1349.92	85.5843
1350.19	78.2796
1350.46	86.5938
1350.73	86.5774
1351	84.4744
1351.27	81.3315
1351.54	76.1167
1351.81	85.456
1352.09	86.4888
1352.36	86.4868
1352.63	84.4164
1352.9	84.4341
1353.17	78.2164
1353.44	80.3096
1353.71	90.7926
1353.98	79.4089
1354.25	84.5415
1354.53	84.4144
1354.8	85.3664
1355.07	81.2192
1355.34	82.2646
1355.61	85.3516
1355.88	84.2969
1356.15	88.4807
1356.42	85.3701
1356.69	78.0797
1356.96	91.5745
1357.24	86.373
1357.51	87.4025
1357.78	85.3139
1358.05	86.3383
1358.32	86.3229
1358.59	87.3446
1358.86	86.2916
1359.13	86.2736
1359.4	85.2191
1359.67	86.2435
1359.94	85.195
1360.22	89.3193
1360.49	79.9646
1360.76	84.0863
1361.03	89.2497
1361.3	87.1703
1361.57	84.0609
1361.84	95.451
1362.11	86.1233
1362.38	87.1482
1362.65	87.1384
1362.92	91.271
1363.19	100.586
1363.46	92.308
1363.73	90.252
1364	83.0126
1364.28	97.5248
1364.55	96.4873
1364.82	96.4804
1365.09	86.1126
1365.36	91.2743
1365.63	90.2182
1365.9	92.2663
1366.17	96.3842
1366.44	89.12
1366.71	90.1329
1366.98	88.0382
1367.25	94.2095
1367.52	89.0266
1367.79	92.1177
1368.06	96.2635
1368.33	100.405
1368.6	116.95
1368.87	137.632
1369.15	121.099
1369.41	104.565
1369.68	98.3681
1369.95	96.288
1370.23	85.9389
1370.5	96.265
1370.77	99.3397
1371.04	90.027
1371.31	99.3075
1371.58	93.0827
1371.85	94.0837
1372.12	97.1421
1372.39	95.0413
1372.66	96.0389
1372.93	93.9511
1373.2	100.12
1373.47	107.321
1373.74	99.0622
1374.01	98.021
1374.28	103.164
1374.55	111.399
1374.82	105.21
1375.09	99.0198
1375.36	101.067
1375.63	100.04
1375.9	97.992
1376.17	101.08
1376.44	109.327
1376.71	108.269
1376.98	104.123
1377.25	117.47
1377.52	106.102
1377.79	118.464
1378.06	119.523
1378.33	114.421
1378.6	121.689
1378.87	113.509
1379.14	124.869
1379.41	128.988
1379.68	119.693
1379.95	127.921
1380.22	126.863
1380.49	127.839
1380.76	127.735
1381.03	130.762
1381.3	139.968
1381.57	135.877
1381.84	137.898
1382.11	134.75
1382.38	151.12
1382.65	138.733
1382.92	153.054
1383.19	150.943
1383.46	152.952
1383.73	180.596
1384	182.614
1384.27	207.193
1384.54	231.806
1384.81	259.51
1385.08	323.139
1385.34	399.138
1385.61	547.067
1385.88	766.88
1386.15	1062.74
1386.42	1473.62
1386.69	1720.42
1386.96	1670.25
1387.23	1327.16
1387.5	890.946
1387.77	591.145
1388.04	407.096
1388.31	296.48
1388.58	229.293
1388.85	203.003
1389.12	170.415
1389.39	165.388
1389.66	141.785
1389.93	143.855
1390.2	129.434
1390.46	121.127
1390.73	115.955
1391	115.951
1391.27	110.779
1391.54	108.719
1391.81	105.634
1392.08	110.732
1392.35	106.606
1392.62	105.558
1392.89	98.3726
1393.16	105.525
1393.43	106.536
1393.7	99.3601
1393.97	103.444
1394.23	91.1551
1394.5	100.358
1394.77	99.328
1395.04	91.1382
1395.31	92.1708
1395.58	101.397
1395.85	96.2908
1396.12	97.3186
1396.39	92.1971
1396.66	92.189
1396.93	88.0839
1397.2	95.2352
1397.46	97.2632
1397.73	84.9698
1398	88.0297
1398.27	92.1197
1398.54	95.1941
1398.81	91.1129
1399.08	82.9343
1399.35	92.1465
1399.62	90.1151
1399.89	91.148
1400.16	96.274
1400.42	98.3197
1400.69	86.0492
1400.96	90.1662
1401.23	93.2486
1401.5	96.3168
1401.77	91.2073
1402.04	86.0856
1402.31	82.0165
1402.58	84.1126
1402.84	85.1894
1403.11	89.3313
1403.38	91.4124
1403.65	90.3994
1403.92	90.4
1404.19	91.4075
1404.46	85.2006
1404.73	86.2388
1404.99	98.5421
1405.26	97.5043
1405.53	97.4869
1405.8	99.5193
1406.07	104.628
1406.34	114.862
1406.61	112.8
1406.87	113.815
1407.14	127.145
1407.41	137.405
1407.68	140.492
1407.95	144.601
1408.22	142.559
1408.49	148.719
1408.76	137.448
1409.02	138.484
1409.29	125.163
1409.56	108.763
1409.83	101.591
1410.1	98.5189
1410.37	98.5189
1410.63	94.3968
1410.9	82.0664
1411.17	86.1408
1411.44	92.2694
1411.71	82.0069
1411.98	86.0938
1412.25	86.0905
1412.51	77.9055
1412.78	77.9275
1413.05	79.0016
1413.32	82.1761
1413.59	75.0342
1413.86	79.0828
1414.12	77.953
1414.39	81.0467
1414.66	83.153
1414.93	78.0581
1415.2	77.0261
1415.47	77.0286
1415.73	70.8687
1416	73.9506
1416.27	85.2513
1416.54	76.0168
1416.81	78.078
1417.07	80.1402
1417.34	79.1223
1417.61	73.9947
1417.88	74.0023
1418.15	79.1441
1418.42	69.8973
1418.68	76.0657
1418.95	72.9861
1419.22	67.8483
1419.49	78.1266
1419.76	77.0904
1420.02	71.9387
1420.29	73.9785
1420.56	72.9375
1420.83	80.1103
1421.1	69.8264
1421.36	74.9455
1421.63	74.9386
1421.9	76.9956
1422.17	73.9358
1422.44	80.1228
1422.7	72.9578
1422.97	78.1366
1423.24	72.0304
1423.51	75.183
1423.77	79.1146
1424.04	74.8482
1424.31	73.8428
1424.58	74.7959
1424.85	71.7227
1425.11	77.892
1425.38	77.9458
1425.65	73.853
1425.92	68.7147
1426.19	70.79
1426.45	70.7846
1426.72	81.0283
1426.99	69.728
1427.26	72.7839
1427.52	72.7625
1427.79	73.7569
1428.06	68.6121
1428.33	70.6487
1428.59	73.7155
1428.86	75.7641
1429.13	73.7205
1429.4	67.5822
1429.67	67.5898
1429.93	72.7217
1430.2	64.5407
1430.47	71.7315
1430.74	69.6965
1431	64.5906
1431.27	67.6963
1431.54	67.7194
1431.81	68.7572
1432.07	67.7309
1432.34	65.6658
1432.61	64.6241
1432.87	68.7173
1433.14	74.8493
1433.41	71.7457
1433.68	68.6409
1433.95	73.7352
1434.21	58.3559
1434.48	73.7093
1434.75	69.6456
1435.01	69.66
1435.28	71.7121
1435.55	67.6134
1435.82	72.7353
1436.08	70.6823
1436.35	72.7269
1436.62	68.6235
1436.89	65.5435
1437.15	63.4882
1437.42	68.6039
1437.69	73.7231
1437.95	68.5939
1438.22	66.542
1438.49	65.521
1438.76	68.6038
1439.02	69.6344
1439.29	80.9055
1439.56	71.6889
1439.82	77.8481
1440.09	72.741
1440.36	60.4585
1440.63	71.7448
1440.89	65.5964
1441.16	69.699
1441.43	68.6773
1441.69	68.6718
1441.96	69.6854
1442.23	66.6036
1442.49	69.6933
1442.76	73.7966
1443.03	65.606
1443.3	71.7506
1443.56	72.7635
1443.83	73.7781
1444.1	66.5946
1444.36	64.5417
1444.63	67.621
1444.9	67.6402
1445.16	67.6565
1445.43	67.6779
1445.7	66.6461
1445.97	68.6913
1446.23	66.6336
1446.5	63.5506
1446.77	65.5969
1447.03	68.6682
1447.3	73.7901
1447.57	71.7316
1447.83	70.6971
1448.1	67.6142
1448.37	72.7394
1448.63	70.7011
1448.9	76.8704
1449.17	67.6439
1449.43	67.6427
1449.7	66.6111
1449.97	62.5004
1450.23	64.5405
1450.5	72.7307
1450.77	66.5739
1451.03	67.5934
1451.3	71.6873
1451.57	63.4824
1451.83	62.451
1452.1	70.6416
1452.37	62.4395
1452.63	65.5101
1452.9	72.6825
1453.17	65.5137
1453.43	64.4962
1453.7	72.7005
1453.97	61.4278
1454.23	69.6213
1454.5	67.5678
1454.77	64.4933
1455.03	69.6168
1455.3	61.4169
1455.56	66.5357
1455.83	64.4874
1456.1	68.5977
1456.36	64.5042
1456.63	66.5536
1456.9	59.3737
1457.16	69.6102
1457.43	66.5252
1457.7	63.4464
1457.96	65.4908
1458.23	67.5366
1458.49	65.4879
1458.76	63.4404
1459.03	66.5171
1459.29	72.6671
1459.56	63.4482
1459.82	65.4985
1460.09	64.4711
1460.36	65.4911
1460.62	62.4128
1460.89	64.456
1461.16	60.3517
1461.42	62.3917
1461.69	64.4313
1461.95	64.4216
1462.22	65.4342
1462.49	65.4219
1462.75	62.3384
1463.02	64.3707
1463.28	70.4927
1463.55	68.4302
1463.82	70.4603
1464.08	66.3679
1464.35	65.3656
1464.61	65.3955
1464.88	66.442
1465.15	65.4488
1465.41	66.4215
1465.68	71.4075
1465.94	72.3694
1466.21	65.2186
1466.48	66.2591
1466.74	66.2525
1467.01	68.2635
1467.27	63.1533
1467.54	59.0781
1467.8	66.2152
1468.07	57.029
1468.34	63.1465
1468.6	70.2853
1468.87	63.1431
1469.13	64.159
1469.4	62.1125
1469.67	63.1243
1469.93	67.19
1470.2	63.0964
1470.46	66.1415
1470.73	62.056
1470.99	64.0861
1471.26	65.0997
1471.53	55.9222
1471.79	67.1142
1472.06	64.0494
1472.32	53.8615
1472.59	59.9685
1472.85	62.0029
1473.12	63.0188
1473.39	60.9773
1473.65	67.0759
1473.92	66.0476
1474.18	66.0392
1474.45	62.9811
1474.71	62.9804
1474.98	61.9679
1475.24	56.8825
1475.51	67.0611
1475.78	72.1476
1476.04	68.0698
1476.31	59.9195
1476.57	65.0006
1476.84	63.9771
1477.1	59.8975
1477.37	65.9897
1477.63	59.8817
1477.9	64.9639
1478.16	57.8432
1478.43	62.9202
1478.69	57.8243
1478.96	65.9473
1479.22	61.8717
1479.49	64.9092
1479.76	68.9604
1480.02	68.9451
1480.29	64.8679
1480.55	58.7529
1480.82	64.8249
1481.08	61.7675
1481.35	60.7468
1481.61	64.7938
1481.88	62.7701
1482.14	58.7208
1482.41	64.8205
1482.67	61.788
1482.94	66.8736
1483.2	69.9187
1483.47	64.8499
1483.73	63.8382
1484	66.8843
1484.26	59.7735
1484.53	64.8241
1484.79	67.8309
1485.06	63.7044
1485.32	69.6902
1485.59	59.5402
1485.85	68.5909
1486.12	64.6967
1486.38	65.728
1486.65	60.6835
1486.91	68.7205
1487.18	67.7419
1487.44	58.6311
1487.71	57.6002
1487.97	62.6507
1488.24	65.6797
1488.5	68.7063
1488.77	63.6289
1489.03	63.613
1489.3	60.5648
1489.56	62.5812
1489.83	59.5402
1490.09	63.5822
1490.36	61.5579
1490.62	60.5449
1490.89	65.5947
1491.15	67.6038
1491.42	67.59
1491.68	60.5057
1491.95	65.5575
1492.21	58.4797
1492.48	54.4376
1492.74	65.5564
1493	62.5196
1493.27	68.5825
1493.53	61.5054
1493.8	60.4897
1494.06	66.5518
1494.33	63.5196
1494.59	59.4797
1494.86	60.4952
1495.12	68.5799
1495.39	61.4928
1495.65	60.4637
1495.92	61.4515
1496.18	64.4629
1496.45	61.4215
1496.71	65.4508
1496.97	66.4516
1497.24	65.4327
1497.5	61.3944
1497.77	64.4212
1498.03	63.4077
1498.3	67.4425
1498.56	68.4518
1498.82	61.3882
1499.09	62.399
1499.35	59.3732
1499.62	62.4047
1499.88	68.4665
1500.15	67.4623
1500.41	60.3971
1500.68	69.4824
1500.94	57.3649
1501.2	70.4863
1501.47	59.3747
1501.73	64.4087
1502	60.3675
1502.26	64.4017
1502.52	60.3623
1502.79	65.401
1503.05	66.3954
1503.32	66.3817
1503.58	65.3649
1503.85	68.3775
1504.11	63.3352
1504.37	66.3659
1504.64	62.3347
1504.9	67.3769
1505.17	65.3565
1505.43	62.3242
1505.7	67.3549
1505.96	61.2882
1506.22	67.311
1506.49	66.2984
1506.75	64.2809
1507.02	68.3131
1507.28	60.2615
1507.54	65.3016
1507.81	66.3117
1508.07	65.3029
1508.34	63.2827
1508.6	64.2863
1508.86	61.2642
1509.13	61.2659
1509.39	65.2969
1509.66	61.2649
1509.92	60.2565
1510.18	60.2626
1510.45	55.2269
1510.71	63.2768
1510.98	66.2863
1511.24	64.256
1511.5	66.2514
1511.77	63.2045
1512.03	66.1888
1512.29	63.1372
1512.56	67.1255
1512.82	66.0921
1513.08	68.083
1513.35	62.0423
1513.61	65.0415
1513.88	60.0165
1514.14	59.026
1514.4	66.0795
1514.67	64.0764
1514.93	67.0818
1515.2	59.0323
1515.46	69.0554
1515.72	57.9967
1515.99	59.9853
1516.25	66.9885
1516.51	60.9565
1516.78	68.9722
1517.04	58.9391
1517.3	60.9399
1517.57	67.9561
1517.83	66.9541
1518.09	54.9259
1518.36	59.9498
1518.62	58.9496
1518.88	63.9684
1519.15	60.9624
1519.41	65.9832
1519.67	61.9748
1519.94	59.9708
1520.2	66.9919
1520.47	61.9693
1520.73	58.955
1520.99	58.9579
1521.26	56.9567
1521.52	59.9714
1521.78	64.9901
1522.05	61.9768
1522.31	63.9773
1522.57	59.9569
1522.84	64.9645
1523.1	64.9572
1523.36	65.9487
1523.62	61.9184
1523.89	71.9142
1524.15	65.8835
1524.41	62.8642
1524.68	60.8497
1524.94	59.8383
1525.2	65.8532
1525.47	57.844
1525.73	59.8486
1525.99	63.8635
1526.26	64.8768
1526.52	60.8851
1526.78	59.8948
1527.05	66.9159
1527.31	67.9162
1527.57	61.8926
1527.84	60.8859
1528.1	57.8739
1528.36	63.8807
1528.63	63.8725
1528.89	63.8651
1529.15	64.8605
1529.41	68.8633
1529.68	61.8501
1529.94	65.8518
1530.2	64.8392
1530.47	59.829
1530.73	64.8413
