#Acq. time (s)=	30
#Accumulations=	2
#Range (cm-¹)=	1200...2365
#Windows=	3
#Auto scanning=	Off
#Autofocus=	Off
#Macrospot=	Off
#AutoExposure=	Off
#Spike filter=	Multiple accum.
#Delay time (s)=	2
#Binning=	1
#Readout mode=	Signal
#DeNoise=	Off
#ICS correction=	On
#Dark correction=	Off
#Inst. Process=	Off
#Detector Gain=	Best Dynamic
#Detector ADC=	50 kHz HS
#Detector temperature (°C)=	-60.28
#Instrument=	LabRAM HR Evol
#Detector=	SIN-EM FIVIS
#Objective=	x100_VIS_LWD
#Grating=	1800 (450-850nm)
#ND Filter=	100%
#Laser=	532nm_Edge
#Hole=	100.021
#Temperature=	0
#Range=	Visible
#StageXY=	75x50mm Scan+
#StageZ=	Z motor
#X (µm)=	0
#Y (µm)=	0
#Z (µm)=	-66.9
#Full time(mm:ss)=	3:24
#Project=	21_11_26
#Sample=	BU19(2)w
#Site=	
#Title=	BU19(2)w-A-FF1-FI07-V_1800 (450-850nm)_532nm_Edge_100%_x100_VIS_LWD_H100um_30sX2
#Remark=	
#Date=	26.11.2021 16:46
#Acquired=	26.11.2021 16:46:02
1202.72	87.6466
1203	94.2345
1203.28	91.0332
1203.56	99.5918
1203.84	100.591
1204.11	87.6375
1204.39	87.6025
1204.67	91.9059
1204.95	88.6906
1205.23	89.7477
1205.5	86.4892
1205.78	99.3416
1206.06	84.2648
1206.34	83.1506
1206.61	93.8364
1206.89	81.9991
1207.17	84.1027
1207.45	85.1405
1207.73	86.1889
1208	85.0968
1208.28	88.2935
1208.56	93.6257
1208.84	83.968
1209.11	82.8748
1209.39	88.1991
1209.67	81.7726
1209.95	83.9069
1210.23	88.1747
1210.5	81.7431
1210.78	77.4349
1211.06	85.9468
1211.34	82.7156
1211.61	84.8179
1211.89	83.725
1212.17	77.2919
1212.45	82.5917
1212.72	82.5685
1213	78.282
1213.28	79.3229
1213.56	77.1765
1213.83	76.1012
1214.11	77.1488
1214.39	83.5393
1214.67	81.4123
1214.94	84.6067
1215.22	80.3466
1215.5	77.1489
1215.78	79.2733
1216.05	79.2661
1216.33	84.566
1216.61	78.1522
1216.89	75.991
1217.16	79.1488
1217.44	78.0611
1217.72	81.2248
1218	78.0146
1218.27	79.0575
1218.55	87.5312
1218.83	81.1443
1219.1	73.7058
1219.38	80.0665
1219.66	69.4482
1219.94	80.0474
1220.21	77.9111
1220.49	82.1504
1220.77	77.9073
1221.04	73.6599
1221.32	73.6517
1221.6	73.6378
1221.88	74.6839
1222.15	86.3192
1222.43	64.0377
1222.71	75.6555
1222.98	74.5585
1223.26	76.6381
1223.54	77.6598
1223.81	73.399
1224.09	77.5988
1224.37	71.2335
1224.65	72.2711
1224.92	74.368
1225.2	78.5796
1225.48	78.5765
1225.76	74.3626
1226.03	76.4814
1226.31	73.3227
1226.59	73.3177
1226.86	78.5907
1227.14	77.5195
1227.42	79.6162
1227.69	75.3548
1227.97	67.9045
1228.25	79.4483
1228.52	79.4022
1228.8	79.326
1229.08	72.9596
1229.35	67.6992
1229.63	69.9726
1229.91	79.6211
1230.18	72.163
1230.46	75.2548
1230.74	76.2805
1231.01	77.3414
1231.29	76.2424
1231.57	79.2437
1231.84	75.054
1232.12	78.2043
1232.4	76.0992
1232.67	76.0893
1232.95	75.0361
1233.23	77.1322
1233.5	72.922
1233.78	75.0202
1234.06	73.973
1234.33	76.0801
1234.61	71.8842
1234.89	70.843
1235.16	72.9561
1235.44	74.0123
1235.71	75.0695
1235.99	79.2834
1236.27	80.3405
1236.54	69.8243
1236.82	66.661
1237.1	78.2119
1237.37	75.0414
1237.65	77.1163
1237.93	76.0377
1238.2	83.3583
1238.48	72.8334
1238.76	79.1005
1239.03	70.6879
1239.31	80.1118
1239.58	70.6644
1239.86	72.7528
1240.14	76.9402
1240.41	76.9369
1240.69	76.9357
1240.97	76.9371
1241.24	76.9403
1241.52	74.8458
1241.79	70.6454
1242.07	72.7278
1242.35	74.8145
1242.62	75.863
1242.9	67.483
1243.18	74.8288
1243.45	82.1759
1243.73	61.2088
1244	77.9808
1244.28	77.9853
1244.56	79.0319
1244.83	73.7846
1245.11	75.8729
1245.39	77.9515
1245.66	81.0741
1245.94	89.4237
1246.21	72.6418
1246.49	76.818
1246.76	73.6709
1247.04	82.0444
1247.32	76.8084
1247.59	76.8011
1247.87	70.5192
1248.14	85.1616
1248.42	85.1292
1248.7	76.7447
1248.97	86.1528
1249.25	72.5605
1249.52	76.7491
1249.8	85.1105
1250.08	76.7398
1250.35	86.153
1250.63	86.1341
1250.9	74.6116
1251.18	85.0458
1251.45	77.7135
1251.73	75.6096
1252.01	73.5065
1252.28	79.7588
1252.56	82.8759
1252.83	76.5955
1253.11	83.8852
1253.39	84.912
1253.66	82.8158
1253.94	82.8154
1254.21	81.7842
1254.49	81.7989
1254.76	80.7718
1255.04	88.0872
1255.31	78.6888
1255.59	84.9599
1255.87	80.782
1256.14	89.131
1256.42	79.7359
1256.69	83.9188
1256.97	86.0193
1257.24	86.0228
1257.52	93.329
1257.79	98.5366
1258.07	95.3943
1258.35	105.828
1258.62	103.73
1258.9	96.4099
1259.17	96.3864
1259.45	96.3833
1259.72	97.4375
1260	98.495
1260.27	96.4461
1260.55	101.641
1260.82	107.879
1261.1	119.318
1261.37	126.591
1261.65	126.57
1261.92	129.716
1262.2	142.361
1262.48	155.093
1262.75	167.744
1263.02	167.469
1263.3	186.044
1263.58	198.471
1263.85	189.271
1264.13	195.682
1264.4	169.727
1264.68	162.489
1264.95	148.796
1265.23	133.082
1265.5	118.448
1265.78	111.122
1266.05	103.787
1266.33	103.786
1266.6	101.703
1266.88	100.67
1267.15	93.3716
1267.43	93.3925
1267.7	94.4626
1267.98	91.3511
1268.25	90.334
1268.53	84.0919
1268.8	94.5947
1269.08	105.088
1269.35	92.5319
1269.63	90.4472
1269.9	96.7275
1270.18	93.5629
1270.45	94.5807
1270.73	92.4659
1271	90.3494
1271.28	87.1934
1271.55	97.6515
1271.83	88.2208
1272.1	96.598
1272.38	93.4797
1272.65	95.5993
1272.93	93.5406
1273.2	89.3737
1273.47	97.7797
1273.75	89.4198
1274.03	95.7333
1274.3	95.758
1274.57	93.6753
1274.85	91.5811
1275.12	99.9679
1275.4	96.8209
1275.67	95.7818
1275.95	104.19
1276.22	95.813
1276.5	100.034
1276.77	104.251
1277.05	102.17
1277.32	103.234
1277.6	109.561
1277.87	116.942
1278.14	110.664
1278.42	111.737
1278.69	123.322
1278.97	124.408
1279.24	130.739
1279.52	136.019
1279.79	145.479
1280.07	160.192
1280.34	180.156
1280.61	207.492
1280.89	244.321
1281.16	301.145
1281.44	379.079
1281.71	482.34
1281.99	639.246
1282.26	817.122
1282.53	1085.64
1282.81	1362.65
1283.08	1639.27
1283.36	1918.34
1283.63	2117.44
1283.91	2055.72
1284.18	1869.68
1284.45	1457.49
1284.73	1041.19
1285	729.477
1285.28	510.291
1285.55	372.074
1285.83	295.089
1286.1	239.292
1286.37	187.742
1286.65	158.254
1286.92	154.012
1287.2	146.639
1287.47	137.154
1287.75	121.344
1288.02	122.374
1288.29	126.57
1288.57	93.945
1288.84	111.838
1289.12	110.792
1289.39	101.335
1289.66	110.828
1289.94	96.1055
1290.21	90.8588
1290.49	103.515
1290.76	97.1933
1291.03	97.1821
1291.31	94.0164
1291.58	87.6949
1291.86	94.0127
1292.13	91.9022
1292.4	90.8492
1292.68	88.7479
1292.95	98.221
1293.22	81.3628
1293.5	87.6853
1293.77	84.5528
1294.05	84.5871
1294.32	94.1121
1294.59	84.6318
1294.87	92.0132
1295.14	90.9516
1295.42	88.8581
1295.69	93.1155
1295.96	86.8317
1296.24	82.6675
1296.51	81.6444
1296.79	83.7664
1297.06	82.711
1297.33	85.8722
1297.61	83.7433
1297.88	77.3866
1298.15	81.5934
1298.43	84.7393
1298.7	90.0293
1298.97	76.293
1299.25	82.615
1299.52	88.9376
1299.79	79.4226
1300.07	78.3656
1300.34	73.1001
1300.62	76.2745
1300.89	78.3878
1301.16	80.4953
1301.44	74.1568
1301.71	82.6068
1301.98	77.34
1302.25	77.3515
1302.53	74.1887
1302.8	75.2466
1303.08	76.3013
1303.35	80.5208
1303.62	80.5113
1303.9	75.2165
1304.17	68.8777
1304.44	76.2702
1304.72	73.102
1304.99	78.3801
1305.26	77.3141
1305.54	76.2443
1305.81	81.5033
1306.08	74.0984
1306.35	79.3542
1306.63	66.6815
1306.9	76.1665
1307.18	70.8926
1307.45	73.0077
1307.72	68.7903
1308	67.734
1308.27	74.0612
1308.54	67.7359
1308.81	71.9501
1309.09	73.0082
1309.36	70.9092
1309.63	65.6432
1309.91	70.9284
1310.18	66.713
1310.45	64.6
1310.73	64.5952
1311	73.0368
1311.27	73.0393
1311.55	76.2088
1311.82	78.3225
1312.09	63.5512
1312.37	72.0071
1312.64	66.7378
1312.91	73.0774
1313.18	67.7942
1313.46	67.7828
1313.73	63.5571
1314	67.7731
1314.28	69.8785
1314.55	67.7668
1314.82	68.8258
1315.09	65.6649
1315.37	66.7283
1315.64	70.9595
1315.91	62.5195
1316.18	67.8083
1316.46	72.0295
1316.73	68.856
1317	72.0207
1317.28	67.7938
1317.55	70.9613
1317.82	67.8022
1318.09	67.8083
1318.37	66.7556
1318.64	72.0398
1318.91	61.4763
1319.18	73.0971
1319.46	65.6992
1319.73	69.9216
1320	68.8621
1320.28	70.979
1320.55	62.5276
1320.82	70.9747
1321.09	70.9638
1321.37	69.8913
1321.64	69.8709
1321.91	68.7928
1322.18	73.0006
1322.46	66.6498
1322.73	64.5306
1323	70.8487
1323.27	63.4563
1323.55	66.6062
1323.82	70.8308
1324.09	69.7789
1324.36	66.6161
1324.64	66.6134
1324.91	65.5593
1325.18	67.6657
1325.45	63.4514
1325.73	69.7598
1326	68.674
1326.27	59.1555
1326.54	65.4271
1326.81	62.251
1327.09	71.7138
1327.36	65.4229
1327.63	67.5715
1327.9	66.5414
1328.18	71.8332
1328.45	73.9689
1328.72	69.7786
1328.99	63.4703
1329.27	69.8061
1329.54	63.4672
1329.81	71.9137
1330.08	65.5799
1330.35	67.6837
1330.63	63.4551
1330.9	72.9343
1331.17	64.4814
1331.44	64.4615
1331.71	66.5431
1331.99	73.8856
1332.26	70.701
1332.53	68.5755
1332.8	62.2408
1333.07	69.5817
1333.35	66.4017
1333.62	72.6862
1333.89	63.206
1334.16	69.4904
1334.43	66.3197
1334.71	67.3515
1334.98	63.1355
1335.25	63.1216
1335.52	69.4045
1335.79	67.2925
1336.07	66.2311
1336.34	68.3168
1336.61	65.1602
1336.88	65.1507
1337.15	67.2391
1337.43	57.7979
1337.7	66.1776
1337.97	70.3618
1338.24	67.2003
1338.51	71.3743
1338.78	62.984
1339.06	66.1145
1339.33	64.0125
1339.6	65.0569
1339.87	66.1058
1340.14	67.156
1340.42	67.1568
1340.69	62.9697
1340.96	73.4439
1341.23	72.3945
1341.5	69.2489
1341.77	60.8662
1342.04	63.9998
1342.32	70.27
1342.59	58.7411
1342.86	67.0957
1343.13	56.6165
1343.4	67.0675
1343.67	72.2911
1343.95	66.0129
1344.22	68.1033
1344.49	68.1039
1344.76	62.874
1345.03	62.8675
1345.3	65.9933
1345.58	62.8417
1345.85	76.4065
1346.12	66.9836
1346.39	65.9157
1346.66	62.7505
1346.93	63.7733
1347.2	63.7534
1347.47	68.9475
1347.75	67.885
1348.02	64.7445
1348.29	65.7778
1348.56	67.8558
1348.83	68.8924
1349.1	64.7128
1349.37	73.0346
1349.65	62.6034
1349.92	69.8812
1350.19	67.7854
1350.46	57.3621
1350.73	66.7187
1351	72.9454
1351.27	63.563
1351.54	67.7126
1351.81	72.8942
1352.09	62.4894
1352.36	65.6072
1352.63	66.6541
1352.9	70.8285
1353.17	66.6875
1353.44	67.7381
1353.71	68.8364
1353.98	68.8999
1354.25	63.6267
1354.53	70.8104
1354.8	68.6592
1355.07	69.7052
1355.34	66.593
1355.61	64.4914
1355.88	69.6718
1356.15	74.8894
1356.42	64.5045
1356.69	71.7615
1356.96	69.6764
1357.24	67.5924
1357.51	71.7391
1357.78	74.8441
1358.05	76.9082
1358.32	69.628
1358.59	73.7661
1358.86	74.7905
1359.13	72.6997
1359.4	67.4986
1359.67	67.4882
1359.94	71.6268
1360.22	73.6811
1360.49	73.6585
1360.76	67.4205
1361.03	74.6586
1361.3	72.5803
1361.57	77.7576
1361.84	71.5391
1362.11	70.4986
1362.38	76.7032
1362.65	75.6589
1362.92	71.5091
1363.19	73.5767
1363.46	81.8642
1363.73	78.7707
1364	79.8157
1364.28	78.7891
1364.55	82.931
1364.82	88.1038
1365.09	90.1652
1365.36	80.8288
1365.63	76.6689
1365.9	76.65
1366.17	83.8756
1366.44	76.614
1366.71	73.4923
1366.98	79.6746
1367.25	77.579
1367.52	80.6668
1367.79	81.6916
1368.06	89.9703
1368.33	86.8756
1368.6	112.723
1368.87	139.608
1369.15	166.495
1369.41	164.441
1369.68	137.567
1369.95	106.534
1370.23	96.1834
1370.5	92.0372
1370.77	85.8123
1371.04	82.7008
1371.31	87.8502
1371.58	85.7595
1371.85	80.5681
1372.12	88.7918
1372.39	83.599
1372.66	84.6004
1372.93	83.5463
1373.2	84.5622
1373.47	79.3968
1373.74	82.4779
1374.01	75.2554
1374.28	84.5218
1374.55	90.697
1374.82	94.8114
1375.09	85.5318
1375.36	91.7006
1375.63	90.6735
1375.9	98.9259
1376.17	87.5908
1376.44	83.4742
1376.71	94.782
1376.98	91.6689
1377.25	93.6966
1377.52	92.6282
1377.79	93.6682
1378.06	94.7209
1378.33	96.8174
1378.6	90.683
1378.87	102.072
1379.14	107.243
1379.41	112.394
1379.68	106.193
1379.95	110.3
1380.22	106.155
1380.49	108.169
1380.76	109.11
1381.03	116.26
1381.3	111.074
1381.57	127.549
1381.84	129.572
1382.11	139.789
1382.38	140.747
1382.65	145.822
1382.92	139.609
1383.19	166.234
1383.46	168.238
1383.73	188.7
1384	197.894
1384.27	242.975
1384.54	273.74
1384.81	326.056
1385.08	379.442
1385.34	501.617
1385.61	652.665
1385.88	914.591
1386.15	1319.32
1386.42	1975.65
1386.69	2955.86
1386.96	3999.74
1387.23	4603.64
1387.5	4427.57
1387.77	3384.46
1388.04	2228.29
1388.31	1381.78
1388.58	842.107
1388.85	561.585
1389.12	405.279
1389.39	313.129
1389.66	255.654
1389.93	216.661
1390.2	192.977
1390.46	183.595
1390.73	164.045
1391	152.759
1391.27	132.198
1391.54	140.385
1391.81	131.148
1392.08	112.676
1392.35	112.646
1392.62	115.693
1392.89	106.458
1393.16	111.561
1393.43	110.524
1393.7	103.348
1393.97	99.244
1394.23	105.376
1394.5	93.0881
1394.77	93.0817
1395.04	97.1702
1395.31	94.1102
1395.58	89.008
1395.85	89.018
1396.12	82.8798
1396.39	87.9947
1396.66	95.1515
1396.93	94.1163
1397.2	83.8707
1397.46	87.9468
1397.73	80.7695
1398	93.035
1398.27	98.1476
1398.54	82.8104
1398.81	85.8887
1399.08	87.9403
1399.35	80.7824
1399.62	87.9588
1399.89	83.8742
1400.16	78.764
1400.42	88.9979
1400.69	84.9152
1400.96	79.8165
1401.23	76.7532
1401.5	71.6298
1401.77	83.9274
1402.04	82.9021
1402.31	81.9052
1402.58	80.9261
1402.84	85.0779
1403.11	85.115
1403.38	89.2476
1403.65	86.1809
1403.92	89.2612
1404.19	88.2159
1404.46	89.1916
1404.73	85.1002
1404.99	90.2219
1405.26	99.443
1405.53	100.451
1405.8	107.61
1406.07	114.767
1406.34	118.849
1406.61	126.011
1406.87	140.35
1407.14	156.756
1407.41	164.967
1407.68	198.811
1407.95	209.075
1408.22	243.947
1408.49	265.493
1408.76	275.763
1409.02	286.038
1409.29	239.913
1409.56	214.292
1409.83	181.484
1410.1	153.797
1410.37	132.255
1410.63	114.793
1410.9	106.559
1411.17	95.2499
1411.44	87.029
1411.71	79.8411
1411.98	83.9281
1412.25	77.7779
1412.51	75.7392
1412.78	77.8104
1413.05	74.782
1413.32	67.6837
1413.59	65.6699
1413.86	67.6721
1414.12	66.5569
1414.39	68.6223
1414.66	65.5893
1414.93	65.6195
1415.2	64.5881
1415.47	69.7233
1415.73	64.5898
1416	66.6447
1416.27	63.5693
1416.54	65.6285
1416.81	65.6345
1417.07	64.6139
1417.34	61.5394
1417.61	59.4916
1417.88	65.6624
1418.15	58.4729
1418.42	62.5839
1418.68	57.448
1418.95	62.5886
1419.22	60.5336
1419.49	62.5898
1419.76	64.6379
1420.02	62.5705
1420.29	59.4758
1420.56	63.5724
1420.83	58.4248
1421.1	63.5448
1421.36	59.4268
1421.63	62.5001
1421.9	57.3712
1422.17	62.5196
1422.44	62.5402
1422.7	58.4514
1422.97	60.5384
1423.24	64.7054
1423.51	57.5541
1423.77	57.4171
1424.04	62.4222
1424.31	65.5151
1424.58	62.3779
1424.85	56.2308
1425.11	64.4452
1425.38	62.4385
1425.65	59.3691
1425.92	56.2837
1426.19	62.4581
1426.45	65.5306
1426.72	62.4416
1426.99	50.1203
1427.26	62.4073
1427.52	58.2893
1427.79	58.265
1428.06	58.2454
1428.33	47.9962
1428.59	55.1597
1428.86	52.0883
1429.13	55.1628
1429.4	53.1189
1429.67	55.173
1429.93	57.2298
1430.2	57.2417
1430.47	50.0827
1430.74	57.2684
1431	53.184
1431.27	56.2845
1431.54	55.2773
1431.81	56.3128
1432.07	56.3126
1432.34	49.1184
1432.61	47.0543
1432.87	55.2532
1433.14	55.2358
1433.41	48.0387
1433.68	57.2401
1433.95	54.144
1434.21	52.0821
1434.48	51.0524
1434.75	54.1491
1435.01	52.1108
1435.28	50.063
1435.55	52.1123
1435.82	50.0612
1436.08	52.1078
1436.35	54.1533
1436.62	48.0018
1436.89	47.9968
1437.15	49.016
1437.42	52.0841
1437.69	53.1064
1437.95	53.1
1438.22	55.1451
1438.49	51.0508
1438.76	44.9122
1439.02	53.1113
1439.29	50.0391
1439.56	51.0659
1439.82	46.9746
1440.09	48.0098
1440.36	46.9977
1440.63	55.206
1440.89	51.1072
1441.16	50.0821
1441.43	52.1356
1441.69	47.0039
1441.96	53.1472
1442.23	48.0161
1442.49	48.0255
1442.76	60.3316
1443.03	51.1124
1443.3	55.2076
1443.56	52.1215
1443.83	45.9622
1444.1	53.133
1444.36	57.2309
1444.63	53.1334
1444.9	52.1228
1445.16	52.1351
1445.43	45.9952
1445.7	48.0427
1445.97	45.9859
1446.23	48.0331
1446.5	51.1056
1446.77	50.0756
1447.03	46.9945
1447.3	49.0413
1447.57	48.0104
1447.83	44.9279
1448.1	44.9228
1448.37	47.9976
1448.63	46.9801
1448.9	44.9391
1449.17	48.0183
1449.43	50.0685
1449.7	46.987
1449.97	43.9039
1450.23	46.972
1450.5	44.9135
1450.77	49.0093
1451.03	51.0549
1451.3	47.9756
1451.57	52.0702
1451.83	50.015
1452.1	45.911
1452.37	50.0052
1452.63	42.8309
1452.9	46.9291
1453.17	43.8571
1453.43	44.8863
1453.7	42.8405
1453.97	44.8899
1454.23	44.8862
1454.5	43.8585
1454.77	51.0309
1455.03	47.9564
1455.3	46.9297
1455.56	45.9014
1455.83	47.9512
1456.1	36.6857
1456.36	44.8882
1456.63	45.9125
1456.9	48.9827
1457.16	44.875
1457.43	42.8181
1457.7	49.9856
1457.96	49.9818
1458.23	46.9061
1458.49	45.8814
1458.76	46.9064
1459.03	47.933
1459.29	40.7631
1459.56	41.7885
1459.82	43.838
1460.09	43.8358
1460.36	45.8813
1460.62	42.8042
1460.89	39.7269
1461.16	44.8432
1461.42	42.7886
1461.69	46.8784
1461.95	38.6802
1462.22	40.7204
1462.49	43.7828
1462.75	45.8199
1463.02	44.7862
1463.28	40.6838
1463.55	38.6281
1463.82	42.7089
1464.08	42.7068
1464.35	39.6516
1464.61	45.8085
1464.88	48.895
1465.15	44.8214
1465.41	43.763
1465.68	40.618
1465.94	37.5222
1466.21	44.6612
1466.48	43.6537
1466.74	43.6489
1467.01	40.5681
1467.27	38.5218
1467.54	43.6261
1467.8	42.6025
1468.07	45.6591
1468.34	37.4959
1468.6	36.4745
1468.87	43.6133
1469.13	40.5502
1469.4	44.625
1469.67	39.5201
1469.93	41.5509
1470.2	43.5791
1470.46	43.5701
1470.73	42.5445
1470.99	36.4254
1471.26	41.5162
1471.53	34.3789
1471.79	40.4824
1472.06	42.5129
1472.32	48.6189
1472.59	39.4521
1472.85	38.4321
1473.12	43.5213
1473.39	45.5536
1473.65	43.5103
1473.92	43.5031
1474.18	39.4263
1474.45	43.4933
1474.71	45.5279
1474.98	44.5136
1475.24	38.4091
1475.51	36.3732
1475.78	38.407
1476.04	45.5268
1476.31	35.3442
1476.57	43.4799
1476.84	42.458
1477.1	38.3815
1477.37	42.4428
1477.63	39.3876
1477.9	42.4364
1478.16	36.333
1478.43	36.3281
1478.69	44.4533
1478.96	42.4131
1479.22	40.3734
1479.49	43.4143
1479.76	42.3894
1480.02	36.2849
1480.29	37.292
1480.55	38.293
1480.82	36.2513
1481.08	39.2876
1481.35	42.3271
1481.61	43.3336
1481.88	36.2351
1482.14	38.2697
1482.41	40.3059
1482.67	38.2834
1482.94	42.3498
1483.2	41.3337
1483.47	37.2766
1483.73	45.4021
1484	44.3861
1484.26	43.3685
1484.53	41.3201
1484.79	38.2527
1485.06	42.2644
1485.32	35.1217
1485.59	42.1848
1485.85	43.162
1486.12	38.1966
1486.38	38.2068
1486.65	42.2759
1486.91	40.2046
1487.18	46.3041
1487.44	40.2302
1487.71	40.2174
1487.97	35.143
1488.24	41.2138
1488.5	43.2315
1488.77	37.1471
1489.03	38.1494
1489.3	38.1415
1489.56	40.1601
1489.83	39.1442
1490.09	41.1641
1490.36	39.1398
1490.62	46.2201
1490.89	42.1676
1491.15	43.1698
1491.42	37.0937
1491.68	41.1336
1491.95	40.12
1492.21	40.1191
1492.48	41.1313
1492.74	38.0961
1493	39.1044
1493.27	41.1242
1493.53	34.0469
1493.8	39.0981
1494.06	39.0958
1494.33	46.1715
1494.59	39.0976
1494.86	43.1442
1495.12	44.1527
1495.39	41.1125
1495.65	37.0575
1495.92	36.0332
1496.18	43.091
1496.45	41.0629
1496.71	41.0565
1496.97	39.0319
1497.24	43.0629
1497.5	41.0432
1497.77	39.0236
1498.03	37.0022
1498.3	41.0374
1498.56	44.0646
1498.82	40.028
1499.09	41.0379
1499.35	40.0297
1499.62	40.0316
1499.88	39.025
1500.15	40.0373
1500.41	39.0284
1500.68	40.037
1500.94	39.0253
1501.2	44.071
1501.47	43.0561
1501.73	42.0378
1502	43.0436
1502.26	40.0142
1502.52	35.9755
1502.79	43.0343
1503.05	42.0155
1503.32	43.015
1503.58	40.9923
1503.85	41.9924
1504.11	37.9583
1504.37	34.9361
1504.64	43.0045
1504.9	43.0041
1505.17	38.9678
1505.43	38.963
1505.7	37.9481
1505.96	40.9602
1506.22	43.9673
1506.49	41.9487
1506.75	41.9466
1507.02	45.9776
1507.28	40.9456
1507.54	37.9235
1507.81	34.9014
1508.07	38.9311
1508.34	41.9506
1508.6	39.9324
1508.86	39.9325
1509.13	38.9256
1509.39	39.9332
1509.66	41.9471
1509.92	40.9386
1510.18	46.989
1510.45	38.9288
1510.71	41.9435
1510.98	34.8825
1511.24	39.9096
1511.5	44.9322
1511.77	41.8936
1512.03	41.8707
1512.29	42.8534
1512.56	38.8113
1512.82	41.8078
1513.08	34.7658
1513.35	38.7734
1513.61	39.769
1513.88	38.7612
1514.14	39.7737
1514.4	35.7708
1514.67	38.7873
1514.93	40.7909
1515.2	38.7724
1515.46	40.769
1515.72	36.7431
1515.99	38.7378
1516.25	41.7347
1516.51	34.7048
1516.78	40.7174
1517.04	38.708
1517.3	34.694
1517.57	40.7081
1517.83	39.7055
1518.09	38.7049
1518.36	37.7085
1518.62	36.7069
1518.88	38.7149
1519.15	36.7103
1519.41	37.716
1519.67	39.7248
1519.94	38.7228
1520.2	37.7179
1520.47	39.7201
1520.73	37.7103
1520.99	38.715
1521.26	42.7313
1521.52	38.721
1521.78	34.708
1522.05	40.7261
1522.31	33.6987
1522.57	41.7196
1522.84	37.7016
1523.1	39.7028
1523.36	35.6843
1523.62	35.6727
1523.89	39.666
1524.15	42.6601
1524.41	37.6422
1524.68	38.6362
1524.94	40.6319
1525.2	44.6416
1525.47	39.6357
1525.73	35.6304
1525.99	33.6317
1526.26	41.6521
1526.52	37.6542
1526.78	47.6845
1527.05	41.6733
1527.31	40.6692
1527.57	36.6537
1527.84	34.6462
1528.1	37.6488
1528.36	33.6369
1528.63	35.6359
1528.89	38.6367
1529.15	39.6341
1529.41	40.633
1529.68	39.6299
1529.94	35.6203
1530.2	39.6194
1530.47	39.6169
1530.73	37.6169
1530.99	41.6307
