#Acq. time (s)=	30
#Accumulations=	2
#Range (cm-¹)=	1200...2365
#Windows=	3
#Auto scanning=	Off
#Autofocus=	Off
#Macrospot=	Off
#AutoExposure=	Off
#Spike filter=	Multiple accum.
#Delay time (s)=	2
#Binning=	1
#Readout mode=	Signal
#DeNoise=	Off
#ICS correction=	On
#Dark correction=	Off
#Inst. Process=	Off
#Detector Gain=	Best Dynamic
#Detector ADC=	50 kHz HS
#Detector temperature (°C)=	-60.09
#Instrument=	LabRAM HR Evol
#Detector=	SIN-EM FIVIS
#Objective=	x100_VIS
#Grating=	1800 (450-850nm)
#ND Filter=	100%
#Laser=	532nm_Edge
#Hole=	49.98
#Temperature=	0
#Range=	Visible
#StageXY=	75x50mm Scan+
#StageZ=	Z motor
#X (µm)=	0
#Y (µm)=	0
#Z (µm)=	-251.2
#Full time(mm:ss)=	3:17
#Project=	21_11_04
#Sample=	BU19w
#Site=	
#Title=	BU19w-E-FF11b-FI02-V_1800 (450-850nm)_532nm_Edge_100%_x100_VIS_H50um_30sX2
#Remark=	
#Date=	04.11.2021 18:23
#Acquired=	04.11.2021 18:23:01
1202.73	32.8442
1203.01	36.0578
1203.29	31.7242
1203.57	27.4176
1203.85	32.7809
1204.12	30.6417
1204.4	33.8632
1204.68	31.7037
1204.96	32.7641
1205.24	28.4552
1205.51	27.368
1205.79	29.5006
1206.07	28.4146
1206.35	32.6882
1206.63	30.5314
1206.9	29.4509
1207.18	28.3735
1207.46	31.579
1207.74	32.644
1208.01	32.6355
1208.29	32.6258
1208.57	31.5479
1208.85	30.4727
1209.13	29.4016
1209.4	31.538
1209.68	30.4642
1209.96	28.3173
1210.23	30.4416
1210.51	33.6341
1210.79	29.3529
1211.07	30.41
1211.35	30.3993
1211.62	27.1886
1211.9	28.2458
1212.18	31.4347
1212.46	28.2296
1212.73	32.4828
1213.01	26.0886
1213.29	32.4718
1213.57	31.4054
1213.84	29.2774
1214.12	32.4721
1214.4	30.3428
1214.68	31.4066
1214.95	35.6635
1215.23	32.468
1215.51	31.3975
1215.78	29.2597
1216.06	32.4384
1216.34	35.6141
1216.62	34.5393
1216.9	33.4668
1217.17	31.3327
1217.45	33.4485
1217.73	30.2562
1218	32.372
1218.28	32.367
1218.56	35.548
1218.84	32.3617
1219.11	27.0541
1219.39	32.3522
1219.67	36.5921
1219.94	29.1683
1220.22	34.4699
1220.5	34.4682
1220.77	37.6428
1221.05	30.2159
1221.33	36.5684
1221.61	33.3766
1221.88	31.244
1222.16	31.2287
1222.44	36.5029
1222.72	33.3146
1222.99	30.1269
1223.27	32.2309
1223.55	31.162
1223.82	31.1528
1224.1	37.4821
1224.38	33.2525
1224.65	37.4726
1224.93	33.2515
1225.21	31.1453
1225.49	36.4282
1225.76	33.2617
1226.04	34.315
1226.32	34.3104
1226.59	33.2485
1226.87	35.3469
1227.15	32.1566
1227.42	41.6132
1227.7	30.0073
1227.98	35.244
1228.25	38.3676
1228.53	30.9981
1228.81	35.2509
1229.08	36.3871
1229.36	34.2877
1229.64	37.4169
1229.91	37.3945
1230.19	33.1794
1230.47	39.4897
1230.74	39.4277
1231.02	33.0994
1231.3	36.2537
1231.57	34.1513
1231.85	37.3
1232.13	36.2474
1232.4	39.3978
1232.68	34.1416
1232.96	39.3918
1233.23	35.1909
1233.51	35.1937
1233.79	38.3489
1234.06	36.2521
1234.34	35.2076
1234.62	37.3133
1234.89	36.2652
1235.17	36.2696
1235.45	35.2221
1235.72	41.5319
1236	37.3226
1236.27	35.2147
1236.55	35.2088
1236.83	39.4007
1237.1	37.2861
1237.38	35.1728
1237.66	40.4082
1237.93	34.0981
1238.21	38.282
1238.49	35.1286
1238.76	33.0264
1239.04	35.1192
1239.31	37.2128
1239.59	36.163
1239.87	38.2586
1240.14	34.0664
1240.42	35.1162
1240.7	39.3115
1240.97	36.1664
1241.25	40.3518
1241.52	37.2016
1241.8	39.2956
1242.08	35.1072
1242.35	35.1091
1242.63	36.1649
1242.91	34.0694
1243.18	34.068
1243.46	40.36
1243.74	39.3135
1244.01	37.2142
1244.29	38.2597
1244.56	40.35
1244.84	37.1959
1245.11	36.1382
1245.39	41.3597
1245.67	41.35
1245.94	38.2068
1246.22	35.0647
1246.49	41.3459
1246.77	40.2966
1247.05	36.1075
1247.32	39.2457
1247.6	40.2824
1247.87	40.2688
1248.15	35.0362
1248.43	44.4494
1248.7	38.1774
1248.98	35.0397
1249.25	33.9914
1249.53	37.1289
1249.8	41.3086
1250.08	42.3434
1250.36	44.4237
1250.63	36.0542
1250.91	36.0476
1251.18	39.1754
1251.46	36.0349
1251.74	42.2941
1252.01	41.2421
1252.29	42.2778
1252.56	40.1819
1252.84	38.0893
1253.11	40.1748
1253.39	34.9606
1253.66	40.1858
1253.94	41.238
1254.22	39.1556
1254.49	40.2011
1254.77	39.1588
1255.04	41.2486
1255.32	37.0703
1255.59	38.1149
1255.87	37.073
1256.14	39.1665
1256.42	36.0364
1256.7	41.2587
1256.97	44.3872
1257.25	51.6924
1257.52	46.4673
1257.8	46.4635
1258.07	50.6357
1258.35	44.3617
1258.62	40.182
1258.9	47.4919
1259.18	43.3194
1259.45	48.5616
1259.73	48.557
1260	48.5467
1260.28	45.3985
1260.55	52.6889
1260.83	47.463
1261.1	47.4573
1261.38	56.8826
1261.65	62.1678
1261.93	67.505
1262.2	69.4961
1262.48	70.453
1262.75	75.5785
1263.03	79.819
1263.31	84.0614
1263.58	78.8969
1263.85	83.1838
1264.13	77.8959
1264.41	67.4138
1264.68	66.3653
1264.96	58.0076
1265.23	54.8566
1265.51	51.7198
1265.78	49.6323
1266.06	47.5478
1266.33	50.6914
1266.61	44.4297
1266.88	47.5781
1267.16	48.6377
1267.43	43.421
1267.71	43.4373
1267.98	42.4113
1268.26	44.5154
1268.53	46.6181
1268.81	41.3863
1269.08	49.7711
1269.36	46.6186
1269.63	46.6061
1269.91	45.5465
1270.18	48.6773
1270.46	41.3407
1270.73	45.5221
1271.01	46.5643
1271.28	41.3309
1271.56	48.664
1271.83	42.3961
1272.1	48.6935
1272.38	45.5667
1272.65	47.6738
1272.93	47.6866
1273.2	46.6508
1273.48	46.6632
1273.75	47.7219
1274.03	45.6286
1274.3	47.7262
1274.58	47.7254
1274.85	43.5327
1275.13	43.5389
1275.4	49.8422
1275.68	53.0015
1275.95	54.0623
1276.22	46.7228
1276.5	44.6301
1276.78	49.891
1277.05	46.7514
1277.32	43.6102
1277.6	46.7728
1277.87	52.0379
1278.15	55.206
1278.42	57.3208
1278.7	57.3312
1278.97	62.5924
1279.24	58.3806
1279.52	66.7884
1279.79	63.6281
1280.07	65.7344
1280.34	72.05
1280.62	82.5841
1280.89	97.3433
1281.17	107.89
1281.44	152.1
1281.71	178.423
1281.99	236.357
1282.26	322.669
1282.54	439.395
1282.81	582.019
1283.09	723.537
1283.36	879.074
1283.63	905.078
1283.91	731.39
1284.18	545.261
1284.46	353.566
1284.73	233.33
1285.01	175.311
1285.28	122.649
1285.55	100.563
1285.83	91.1005
1286.1	82.6532
1286.38	73.1757
1286.65	62.6452
1286.93	59.4799
1287.2	57.3638
1287.47	60.512
1287.75	56.3004
1288.02	59.4591
1288.3	56.3038
1288.57	55.2585
1288.84	52.1103
1289.12	57.3842
1289.39	51.0769
1289.67	47.9277
1289.94	52.1466
1290.21	52.1401
1290.49	47.9229
1290.76	52.1348
1291.04	47.9216
1291.31	45.8143
1291.58	48.972
1291.86	46.8687
1292.13	43.7105
1292.4	48.9706
1292.68	45.8111
1292.95	47.9258
1293.23	42.6785
1293.5	49.0205
1293.77	44.8189
1294.05	45.8714
1294.32	43.7626
1294.59	49.0345
1294.87	49.0528
1295.14	53.2987
1295.42	44.8841
1295.69	44.9121
1295.96	43.8642
1296.24	42.8088
1296.51	43.8643
1296.79	43.8573
1297.06	42.7925
1297.33	42.7833
1297.61	46.9973
1297.88	43.8251
1298.15	45.941
1298.43	48.0455
1298.7	42.7594
1298.97	45.9202
1299.25	45.9163
1299.52	49.0879
1299.79	42.7606
1300.07	40.6513
1300.34	44.8742
1300.61	45.9281
1300.89	44.8728
1301.16	46.9901
1301.44	48.0543
1301.71	40.6661
1301.98	40.6683
1302.26	41.7249
1302.53	42.7795
1302.8	38.5509
1303.08	40.6573
1303.35	43.8212
1303.62	45.9331
1303.9	44.8778
1304.17	39.5979
1304.44	42.7626
1304.72	50.1461
1304.99	36.4145
1305.26	42.738
1305.54	39.5629
1305.81	45.883
1306.08	46.9317
1306.36	38.493
1306.63	43.7688
1306.9	39.5523
1307.18	44.8261
1307.45	43.7707
1307.72	43.7729
1307.99	36.3883
1308.27	39.5529
1308.54	43.7775
1308.81	36.3987
1309.09	36.4042
1309.36	41.6855
1309.63	37.4649
1309.91	42.739
1310.18	43.7933
1310.45	35.3523
1310.73	41.6864
1311	41.6885
1311.27	37.4687
1311.54	41.6971
1311.82	46.9833
1312.09	37.4848
1312.36	42.7659
1312.64	43.8151
1312.91	42.7555
1313.18	41.6979
1313.45	38.5276
1313.73	40.6374
1314	36.4167
1314.27	39.5868
1314.55	35.3684
1314.82	38.5405
1315.09	41.7135
1315.36	45.9438
1315.64	38.5521
1315.91	40.6621
1316.18	41.7162
1316.46	37.4906
1316.73	36.4341
1317	42.774
1317.28	38.5542
1317.55	42.7827
1317.82	35.39
1318.09	40.6734
1318.37	41.7305
1318.64	39.617
1318.91	40.6721
1319.18	40.6706
1319.46	36.4461
1319.73	41.7298
1320	47.0109
1320.27	42.7807
1320.55	42.7727
1320.82	37.4825
1321.09	38.5265
1321.36	35.3522
1321.64	35.3433
1321.91	40.6109
1322.18	39.5507
1322.45	40.5999
1322.73	43.7546
1323	39.5381
1323.27	44.813
1323.54	37.4334
1323.82	40.5959
1324.09	42.7053
1324.36	43.7582
1324.63	38.4893
1324.91	38.4842
1325.18	41.6313
1325.45	34.2368
1325.72	35.2639
1325.99	38.4056
1326.27	38.3983
1326.54	42.6122
1326.81	42.6404
1327.08	37.3919
1327.36	40.5657
1327.63	39.5269
1327.9	40.5974
1328.17	42.7215
1328.45	42.7325
1328.72	37.4496
1328.99	39.5644
1329.26	43.7842
1329.53	42.7265
1329.81	38.5026
1330.08	39.5511
1330.35	35.3249
1330.62	37.4237
1330.9	41.6267
1331.17	40.5543
1331.44	40.5385
1331.71	39.4747
1331.98	40.5158
1332.26	42.6068
1332.53	42.5912
1332.8	43.6285
1333.07	35.207
1333.34	40.4504
1333.62	40.4389
1333.89	37.278
1334.16	44.6173
1334.43	39.3594
1334.7	44.5989
1334.98	44.5903
1335.25	39.3374
1335.52	40.3796
1335.79	37.2273
1336.06	34.0767
1336.34	38.2659
1336.61	38.2622
1336.88	42.4517
1337.15	38.2556
1337.42	45.5849
1337.69	41.3808
1337.96	43.4693
1338.24	41.3684
1338.51	37.1734
1338.78	40.3128
1339.05	39.266
1339.32	43.4572
1339.6	42.4117
1339.87	32.9875
1340.14	38.2255
1340.41	37.1784
1340.68	46.6021
1340.95	41.3636
1341.23	45.5482
1341.5	39.2603
1341.77	44.4865
1342.04	40.2898
1342.31	38.1866
1342.58	41.3168
1342.86	43.405
1343.13	36.0819
1343.4	41.3105
1343.67	37.1275
1343.94	39.2197
1344.21	41.3096
1344.48	44.441
1344.76	37.1139
1345.03	38.149
1345.3	41.2726
1345.57	39.1716
1345.84	41.2431
1346.11	45.4008
1346.39	39.1272
1346.66	42.2446
1346.93	34.9328
1347.2	43.2654
1347.47	41.1743
1347.74	42.2124
1348.01	39.0825
1348.28	38.0359
1348.55	35.9455
1348.83	38.0221
1349.1	39.0565
1349.37	41.1321
1349.64	41.1248
1349.91	41.1175
1350.18	41.1085
1350.45	42.1388
1350.73	42.1305
1351	37.9612
1351.27	43.1549
1351.54	42.1133
1351.81	45.2356
1352.08	33.8026
1352.35	48.3773
1352.62	40.0616
1352.89	44.2496
1353.17	45.336
1353.44	41.1577
1353.71	39.0223
1353.98	40.012
1354.25	46.235
1354.52	46.241
1354.79	43.1155
1355.06	46.2141
1355.33	37.9127
1355.6	46.2424
1355.88	41.034
1356.15	38.9523
1356.42	41.0262
1356.69	42.0612
1356.96	44.1332
1357.23	44.1268
1357.5	43.0814
1357.77	35.8083
1358.04	38.9152
1358.31	43.0588
1358.58	40.9747
1358.86	40.9683
1359.13	38.889
1359.4	46.1405
1359.67	41.9796
1359.94	47.1494
1360.21	44.0298
1360.48	41.953
1360.75	42.9874
1361.02	48.166
1361.29	47.1275
1361.56	42.981
1361.83	44.011
1362.1	39.8652
1362.37	45.0392
1362.65	48.1465
1362.92	46.0815
1363.19	46.0893
1363.46	42.9868
1363.73	46.0977
1364	49.2022
1364.27	50.2338
1364.54	51.2622
1364.81	44.0039
1365.08	47.0991
1365.35	48.1231
1365.62	41.9044
1365.89	42.9294
1366.16	44.9865
1366.43	46.0059
1366.7	45.9942
1366.97	45.9895
1367.24	45.9904
1367.52	49.0971
1367.79	50.1338
1368.06	48.0694
1368.33	54.2753
1368.6	71.8554
1368.87	82.2007
1369.14	88.4016
1369.41	68.7482
1369.68	54.2689
1369.95	48.0575
1370.22	53.2147
1370.49	47.0078
1370.76	45.9637
1371.03	43.8843
1371.3	44.9005
1371.57	47.9785
1371.84	48.9927
1372.11	46.9159
1372.38	51.0299
1372.65	47.9302
1372.92	46.8935
1373.19	52.0409
1373.46	42.7624
1373.73	52.0322
1374	54.0893
1374.27	49.9647
1374.54	52.0194
1374.81	48.9279
1375.08	49.9629
1375.35	48.9342
1375.62	52.027
1375.89	48.9294
1376.16	53.037
1376.43	48.9033
1376.7	59.1741
1376.97	50.9377
1377.24	51.9772
1377.51	49.9357
1377.78	53.0484
1378.05	55.1399
1378.32	54.126
1378.59	57.2212
1378.86	58.2464
1379.13	58.2387
1379.4	56.1676
1379.67	54.0906
1379.94	58.1681
1380.21	60.1945
1380.48	60.1639
1380.75	58.1125
1381.02	68.3905
1381.29	63.2231
1381.56	67.3016
1381.83	67.2712
1382.1	65.1936
1382.37	68.246
1382.64	72.3304
1382.91	75.3839
1383.18	77.4205
1383.45	84.5817
1383.72	97.9095
1383.99	95.8638
1384.26	109.21
1384.53	111.283
1384.8	144.165
1385.07	159.6
1385.34	208.925
1385.61	292.112
1385.87	420.555
1386.14	608.576
1386.41	998.936
1386.68	1555.5
1386.95	1948.27
1387.22	1701.16
1387.49	1113.19
1387.76	606.87
1388.03	359.011
1388.3	240.498
1388.57	179.167
1388.84	130.898
1389.11	103.211
1389.38	101.14
1389.65	91.8451
1389.92	81.5041
1390.19	79.4859
1390.46	70.214
1390.73	73.2777
1390.99	71.2274
1391.26	69.1641
1391.53	57.8778
1391.8	59.9118
1392.07	56.8291
1392.34	54.7732
1392.61	58.8613
1392.88	56.8082
1393.15	56.8029
1393.42	49.6344
1393.69	54.7474
1393.96	53.7208
1394.23	49.6252
1394.5	53.7189
1394.76	51.6824
1395.03	51.6894
1395.3	49.6467
1395.57	52.7176
1395.84	53.7378
1396.11	52.7087
1396.38	54.7488
1396.65	51.6712
1396.92	49.6149
1397.19	55.7456
1397.46	50.6292
1397.73	44.494
1397.99	48.5903
1398.26	51.6641
1398.53	45.5286
1398.8	53.7198
1399.07	44.5171
1399.34	53.733
1399.61	49.6409
1399.88	50.6683
1400.14	48.6312
1400.41	52.7359
1400.68	50.6894
1400.95	46.5958
1401.22	50.6947
1401.49	53.7777
1401.76	49.7038
1402.03	48.708
1402.3	46.6811
1402.57	51.83
1402.83	49.7884
1403.1	49.7921
1403.37	46.707
1403.64	54.8951
1403.91	50.7851
1404.18	51.8114
1404.45	52.832
1404.72	55.9012
1404.99	55.8912
1405.25	56.9067
1405.52	57.9225
1405.79	58.9405
1406.06	60.9849
1406.33	69.1849
1406.6	64.0642
1406.87	77.3963
1407.13	87.6537
1407.4	89.7097
1407.67	95.8672
1407.94	115.355
1408.21	126.643
1408.48	126.655
1408.75	114.358
1409.01	112.317
1409.28	97.9631
1409.55	81.5545
1409.82	67.1842
1410.09	65.1171
1410.36	57.9212
1410.62	55.8565
1410.89	54.8213
1411.16	44.5677
1411.43	52.7596
1411.7	45.592
1411.97	47.6517
1412.23	44.5952
1412.5	48.7508
1412.77	47.7721
1413.04	44.6815
1413.31	43.5853
1413.58	47.6778
1413.84	48.7311
1414.11	44.6583
1414.38	46.7113
1414.65	41.5796
1414.92	44.6601
1415.19	42.6073
1415.45	41.5838
1415.72	45.6951
1415.99	47.7537
1416.26	40.5691
1416.53	40.5741
1416.8	41.6063
1417.06	45.7214
1417.33	45.7252
1417.6	46.7542
1417.87	43.6724
1418.14	35.4549
1418.4	39.5651
1418.67	43.6791
1418.94	43.6765
1419.21	43.6695
1419.48	42.6331
1419.74	39.5444
1420.01	44.6717
1420.28	40.5552
1420.55	43.6266
1420.82	42.594
1421.08	39.5151
1421.35	41.5742
1421.62	42.6188
1421.89	46.7376
1422.16	39.5666
1422.42	43.7052
1422.69	43.7538
1422.96	44.7888
1423.23	47.6442
1423.5	44.6253
1423.76	41.5096
1424.03	45.5735
1424.3	39.4615
1424.57	44.5808
1424.83	44.6394
1425.1	39.4696
1425.37	39.498
1425.64	40.5211
1425.91	42.5689
1426.17	39.4815
1426.44	39.4716
1426.71	40.4853
1426.98	36.3739
1427.24	36.3582
1427.51	42.4951
1427.78	37.3715
1428.05	34.2997
1428.32	43.5168
1428.58	38.4003
1428.85	38.4043
1429.12	37.3855
1429.38	41.4905
1429.65	39.4517
1429.92	37.4119
1430.19	38.4457
1430.46	39.4867
1430.72	35.3994
1430.99	40.5395
1431.26	41.569
1431.53	40.5386
1431.79	37.451
1432.06	41.5473
1432.33	40.5138
1432.6	38.4482
1432.86	37.4085
1433.13	44.5642
1433.4	40.4539
1433.67	37.3759
1433.93	37.3825
1434.2	38.4242
1434.47	40.4758
1434.73	37.4027
1435	40.4766
1435.27	38.426
1435.54	37.3994
1435.8	42.52
1436.07	38.4188
1436.34	42.513
1436.6	35.3391
1436.87	36.3616
1437.14	39.4322
1437.41	39.4288
1437.67	38.4053
1437.94	35.3372
1438.21	34.3172
1438.48	37.3927
1438.74	37.3945
1439.01	38.4236
1439.28	45.6053
1439.54	31.2658
1439.81	36.3984
1440.08	39.4779
1440.35	34.3523
1440.61	40.5068
1440.88	37.4297
1441.15	37.4251
1441.41	37.4208
1441.68	39.4751
1441.95	35.3773
1442.21	38.4591
1442.48	34.357
1442.75	35.3773
1443.02	39.4732
1443.28	38.4437
1443.55	39.4665
1443.82	39.4674
1444.08	38.4504
1444.35	38.4603
1444.62	39.4985
1444.88	38.4751
1445.15	36.42
1445.42	41.5462
1445.69	39.4914
1445.95	34.3602
1446.22	41.537
1446.49	36.4064
1446.75	39.4796
1447.02	37.4245
1447.28	35.37
1447.55	28.1921
1447.82	39.4734
1448.09	37.4315
1448.35	30.2566
1448.62	36.4113
1448.89	38.4606
1449.15	35.38
1449.42	36.4002
1449.69	34.3437
1449.95	40.4907
1450.22	32.2876
1450.49	35.3601
1450.75	39.4568
1451.02	33.3047
1451.29	36.3755
1451.55	39.4463
1451.82	40.4686
1452.09	38.4196
1452.35	40.47
1452.62	36.3755
1452.88	34.3302
1453.15	41.5058
1453.42	36.38
1453.68	39.4517
1453.95	37.402
1454.22	31.254
1454.48	35.3527
1454.75	36.3752
1455.02	31.2507
1455.28	36.3797
1455.55	34.3349
1455.81	32.2862
1456.08	39.4594
1456.35	33.3051
1456.61	37.3973
1456.88	36.3696
1457.15	34.3185
1457.41	36.3653
1457.68	35.341
1457.95	32.2683
1458.21	35.3435
1458.48	37.3947
1458.74	37.396
1459.01	35.3487
1459.28	35.3481
1459.54	34.3216
1459.81	33.295
1460.08	36.3658
1460.34	38.4112
1460.61	37.3822
1460.87	38.4017
1461.14	33.2772
1461.41	32.2482
1461.67	38.3843
1461.94	34.2835
1462.2	32.2301
1462.47	33.246
1462.74	35.2838
1463	35.2755
1463.27	34.2476
1463.54	35.2756
1463.8	38.3633
1464.07	38.3773
1464.33	34.2961
1464.6	33.2885
1464.86	36.2751
1465.13	33.1762
1465.4	33.1601
1465.66	36.2359
1465.93	38.2827
1466.19	33.165
1466.46	32.1313
1466.73	34.1787
1466.99	32.1366
1467.26	37.2349
1467.52	34.1726
1467.79	38.2522
1468.05	37.2317
1468.32	35.1904
1468.59	36.2074
1468.85	31.1043
1469.12	39.2573
1469.38	35.1703
1469.65	38.2204
1469.92	38.2148
1470.18	30.0588
1470.45	37.1878
1470.71	35.1478
1470.98	36.1592
1471.24	35.1349
1471.51	37.1683
1471.77	35.1303
1472.04	31.0563
1472.31	36.1467
1472.57	36.1451
1472.84	32.0688
1473.1	34.0994
1473.37	36.1307
1473.64	34.0919
1473.9	31.038
1474.17	33.075
1474.43	31.0429
1474.7	32.0616
1474.96	32.0614
1475.23	34.0949
1475.49	33.0732
1475.76	34.0867
1476.02	30.0144
1476.29	35.0974
1476.55	34.0741
1476.82	30.002
1477.09	36.1026
1477.35	33.0508
1477.62	38.1333
1477.88	37.1102
1478.15	35.0708
1478.41	35.0658
1478.68	34.044
1478.94	32.0059
1479.21	36.0629
1479.47	38.0867
1479.74	32.9988
1480	40.0936
1480.27	35.0105
1480.53	36.0206
1480.8	37.0303
1481.07	37.0298
1481.33	36.0201
1481.6	37.0412
1481.86	30.9583
1482.12	29.9486
1482.39	30.9658
1482.65	35.0294
1482.92	37.0635
1483.19	36.0492
1483.45	31.9868
1483.72	34.0091
1483.98	36.0221
1484.25	29.9083
1484.51	35.9466
1484.78	35.9179
1485.04	38.925
1485.31	33.9102
1485.57	34.9584
1485.84	34.972
1486.1	33.939
1486.37	30.898
1486.63	33.9473
1486.9	33.9429
1487.16	38.999
1487.43	37.9797
1487.69	32.9108
1487.96	34.9293
1488.22	35.9334
1488.49	35.926
1488.75	35.9211
1489.02	34.9061
1489.28	33.8917
1489.54	29.8442
1489.81	34.9024
1490.07	33.8881
1490.34	27.8139
1490.6	32.8643
1490.87	33.8711
1491.13	38.9241
1491.4	34.8794
1491.66	35.8917
1491.93	29.8254
1492.19	44.9887
1492.46	37.9103
1492.72	37.9102
1492.99	37.9083
1493.25	34.8738
1493.52	32.852
1493.78	33.8644
1494.04	28.8127
1494.31	38.9229
1494.57	35.8861
1494.84	27.7924
1495.1	34.8548
1495.37	29.7939
1495.63	35.846
1495.9	31.8022
1496.16	37.8554
1496.43	34.8216
1496.69	30.783
1496.96	34.8203
1497.22	34.8186
1497.48	32.799
1497.75	30.7806
1498.01	33.8088
1498.28	34.8191
1498.54	34.8204
1498.81	35.8317
1499.07	31.7969
1499.33	37.8572
1499.6	33.821
1499.86	34.8309
1500.13	36.849
1500.39	32.81
1500.66	28.7703
1500.92	35.8293
1501.18	33.8075
1501.45	35.8247
1501.71	37.8418
1501.98	35.8218
1502.24	40.8598
1502.51	35.8069
1502.77	34.7951
1503.03	36.8045
1503.3	28.7358
1503.56	32.7719
1503.83	32.774
1504.09	36.8087
1504.35	33.7826
1504.62	32.7715
1504.88	36.8003
1505.15	30.7452
1505.41	34.7618
1505.68	37.7801
1505.94	34.7567
1506.2	37.7776
1506.47	33.7543
1506.73	35.771
1507	39.8039
1507.26	36.7816
1507.52	33.7567
1507.79	33.7538
1508.05	35.7691
1508.32	32.7478
1508.58	40.8099
1508.84	31.7409
1509.11	33.7553
1509.37	34.7643
1509.63	30.7405
1509.9	32.75
1510.16	35.767
1510.43	34.7518
1510.69	36.7576
1510.95	39.7657
1511.22	37.7333
1511.48	36.7071
1511.75	27.6431
1512.01	38.6805
1512.27	39.6744
1512.54	35.6483
1512.8	35.6409
1513.07	35.6354
1513.33	34.6331
1513.59	32.6413
1513.86	33.6532
1514.12	34.655
1514.38	39.671
1514.65	36.6469
1514.91	35.6352
1515.17	35.6247
1515.44	28.5914
1515.7	35.6041
1515.96	30.586
1516.23	36.6001
1516.49	37.6
1516.76	32.5852
1517.02	36.5958
1517.28	34.5921
1517.55	37.6058
1517.81	33.5982
1518.07	39.6183
1518.34	33.6025
1518.6	37.6177
1518.86	37.6208
1519.13	26.587
1519.39	33.6103
1519.65	37.6211
1519.92	31.5993
1520.18	28.5901
1520.44	33.6087
1520.71	38.6286
1520.97	31.6071
1521.23	33.6136
1521.5	37.6246
1521.76	31.6015
1522.02	30.5948
1522.29	36.6094
1522.55	32.593
1522.81	34.5903
1523.08	32.5736
1523.34	36.5711
1523.6	29.5507
1523.87	34.5529
1524.13	33.5459
1524.39	34.5476
1524.66	36.553
1524.92	37.5561
1525.18	36.5583
1525.45	35.5628
1525.71	34.5692
1525.97	37.5838
1526.24	34.5816
1526.5	30.5728
1526.76	31.5721
1527.02	30.5671
1527.29	36.5775
1527.55	42.5869
1527.81	32.5631
1528.08	29.554
1528.34	34.5599
1528.6	36.561
1528.87	32.5534
1529.13	38.5616
1529.39	33.5494
1529.65	37.5519
1529.92	36.552
1530.18	31.55
1530.44	38.569
1530.71	28.5561
