#Acq. time (s)=	30
#Accumulations=	2
#Range (cm-¹)=	1200...2365
#Windows=	3
#Auto scanning=	Off
#Autofocus=	Off
#Macrospot=	Off
#AutoExposure=	Off
#Spike filter=	Multiple accum.
#Delay time (s)=	2
#Binning=	1
#Readout mode=	Signal
#DeNoise=	Off
#ICS correction=	On
#Dark correction=	Off
#Inst. Process=	Off
#Detector Gain=	Best Dynamic
#Detector ADC=	50 kHz HS
#Detector temperature (°C)=	-60.09
#Instrument=	LabRAM HR Evol
#Detector=	SIN-EM FIVIS
#Objective=	x100_VIS_LWD
#Grating=	1800 (450-850nm)
#ND Filter=	100%
#Laser=	532nm_Edge
#Hole=	100.021
#Temperature=	0
#Range=	Visible
#StageXY=	75x50mm Scan+
#StageZ=	Z motor
#X (µm)=	0
#Y (µm)=	0
#Z (µm)=	-16.9
#Full time(mm:ss)=	3:18
#Project=	21_11_26
#Sample=	BU19(2)w
#Site=	
#Title=	BU19(2)w-A-FF1-FI06-V_1800 (450-850nm)_532nm_Edge_100%_x100_VIS_LWD_H100um_30sX2
#Remark=	
#Date=	26.11.2021 13:46
#Acquired=	26.11.2021 13:46:13
1202.72	180.133
1203	175.008
1203.28	168.601
1203.56	176.037
1203.84	174.825
1204.11	174.74
1204.39	173.596
1204.67	175.754
1204.95	171.473
1205.23	180.039
1205.5	170.299
1205.78	171.302
1206.06	164.78
1206.34	176.504
1206.61	171.057
1206.89	174.192
1207.17	170.894
1207.45	174.041
1207.73	166.5
1208	164.318
1208.28	164.29
1208.56	168.536
1208.84	165.275
1209.11	165.23
1209.39	167.324
1209.67	164.096
1209.95	161.95
1210.23	165.142
1210.5	167.245
1210.78	157.559
1211.06	161.767
1211.34	165.985
1211.61	156.316
1211.89	165.871
1212.17	156.205
1212.45	162.541
1212.72	157.167
1213	157.12
1213.28	162.398
1213.56	159.17
1213.83	151.696
1214.11	163.373
1214.39	159.121
1214.67	149.544
1214.94	155.933
1215.22	156.996
1215.5	152.73
1215.78	161.238
1216.05	156.966
1216.33	156.925
1216.61	154.741
1216.89	162.117
1217.16	154.611
1217.44	150.312
1217.72	155.579
1218	138.542
1218.27	156.558
1218.55	144.846
1218.83	153.305
1219.1	152.225
1219.38	150.091
1219.66	157.503
1219.94	152.178
1220.21	153.211
1220.49	151.084
1220.77	150.023
1221.04	146.832
1221.32	146.816
1221.6	143.608
1221.88	152.062
1222.15	157.316
1222.43	145.601
1222.71	159.299
1222.98	148.635
1223.26	150.679
1223.54	147.437
1223.81	149.489
1224.09	155.775
1224.37	150.439
1224.65	160.96
1224.92	144.037
1225.2	150.35
1225.48	150.345
1225.76	152.474
1226.03	141.931
1226.31	160.955
1226.59	136.66
1226.86	152.486
1227.14	152.456
1227.42	150.319
1227.69	147.075
1227.97	140.61
1228.25	152.11
1228.52	148.864
1228.8	150.825
1229.08	162.268
1229.35	144.391
1229.63	154.228
1229.91	152.444
1230.18	138.589
1230.46	155.315
1230.74	146.833
1231.01	155.275
1231.29	152.025
1231.57	158.029
1231.84	146.498
1232.12	140.189
1232.4	143.335
1232.67	150.672
1232.95	145.414
1233.23	150.658
1233.5	153.794
1233.78	156.94
1234.06	147.493
1234.33	150.658
1234.61	151.723
1234.89	148.591
1235.16	155.972
1235.44	149.677
1235.71	154.946
1235.99	147.605
1236.27	151.822
1236.54	146.561
1236.82	156.004
1237.1	158.08
1237.37	153.841
1237.65	152.738
1237.93	150.582
1238.2	149.477
1238.48	151.521
1238.76	154.613
1239.03	137.79
1239.31	146.153
1239.58	138.793
1239.86	150.309
1240.14	140.864
1240.41	148.196
1240.69	145.05
1240.97	136.667
1241.24	153.446
1241.52	151.354
1241.79	144.002
1242.07	157.599
1242.35	148.149
1242.62	145.007
1242.9	155.495
1243.18	148.179
1243.45	157.633
1243.73	152.388
1244	146.099
1244.28	151.349
1244.56	157.637
1244.83	141.902
1245.11	154.465
1245.39	148.143
1245.66	150.2
1245.94	151.194
1246.21	157.425
1246.49	152.167
1246.76	149.014
1247.04	146.921
1247.32	155.29
1247.59	152.136
1247.87	144.806
1248.14	163.627
1248.42	154.15
1248.7	148.89
1248.97	146.79
1249.25	143.66
1249.52	149.946
1249.8	160.394
1250.08	159.342
1250.35	148.884
1250.63	149.897
1250.9	147.767
1251.18	149.823
1251.45	153.973
1251.73	152.9
1252.01	154.962
1252.28	151.8
1252.56	150.726
1252.83	151.741
1253.11	141.27
1253.39	146.46
1253.66	149.576
1253.94	157.923
1254.21	160.035
1254.49	155.889
1254.76	150.702
1255.04	154.89
1255.31	150.713
1255.59	141.325
1255.87	155.944
1256.14	144.449
1256.42	153.853
1256.69	161.175
1256.97	145.53
1257.24	147.625
1257.52	154.928
1257.79	151.772
1258.07	162.2
1258.35	166.364
1258.62	160.084
1258.9	155.889
1259.17	152.721
1259.45	147.497
1259.72	154.82
1260	156.93
1260.27	154.905
1260.55	166.35
1260.82	162.133
1261.1	158.944
1261.37	162.034
1261.65	172.437
1261.92	176.633
1262.2	174.701
1262.48	182.248
1262.75	175.038
1263.02	192.507
1263.3	200.62
1263.58	209.912
1263.85	204.898
1264.13	188.341
1264.4	187.472
1264.68	168.736
1264.95	169.675
1265.23	170.677
1265.5	167.541
1265.78	171.705
1266.05	154.956
1266.33	160.178
1266.6	158.099
1266.88	165.435
1267.15	162.329
1267.43	156.093
1267.7	160.317
1267.98	154.086
1268.25	163.554
1268.53	153.157
1268.8	158.448
1269.08	157.431
1269.35	157.456
1269.63	153.283
1269.9	154.321
1270.18	152.191
1270.45	158.427
1270.73	147.923
1271	156.26
1271.28	155.185
1271.55	160.407
1271.83	157.245
1272.1	167.72
1272.38	152.059
1272.65	161.523
1272.93	154.253
1273.2	158.483
1273.47	153.284
1273.75	160.662
1274.03	157.558
1274.3	161.794
1274.57	154.477
1274.85	158.68
1275.12	153.428
1275.4	164.966
1275.67	152.395
1275.95	158.714
1276.22	161.889
1276.5	156.679
1276.77	157.757
1277.05	165.137
1277.32	162.009
1277.6	165.199
1277.87	158.935
1278.14	157.921
1278.42	168.463
1278.69	176.905
1278.97	167.49
1279.24	173.827
1279.52	170.699
1279.79	171.741
1280.07	171.726
1280.34	184.326
1280.61	196.938
1280.89	214.833
1281.16	218.009
1281.44	239.106
1281.71	296.014
1281.99	335
1282.26	410.78
1282.53	491.876
1282.81	611.954
1283.08	744.485
1283.36	876.688
1283.63	974.735
1283.91	918.684
1284.18	830.395
1284.45	656.309
1284.73	466.975
1285	361.686
1285.28	281.597
1285.55	243.544
1285.83	213.98
1286.1	198.191
1286.37	186.649
1286.65	185.594
1286.92	158.183
1287.2	181.344
1287.47	165.54
1287.75	167.62
1288.02	161.275
1288.29	162.31
1288.57	163.36
1288.84	155.997
1289.12	166.532
1289.39	160.24
1289.66	151.846
1289.94	150.82
1290.21	148.745
1290.49	161.411
1290.76	145.608
1291.03	157.178
1291.31	151.902
1291.58	158.219
1291.86	165.589
1292.13	145.572
1292.4	148.732
1292.68	156.114
1292.95	146.625
1293.22	153.985
1293.5	153.992
1293.77	146.667
1294.05	150.943
1294.32	153.115
1294.59	154.187
1294.87	145.75
1295.14	151.012
1295.42	147.875
1295.69	151.102
1295.96	152.239
1296.24	154.46
1296.51	151.353
1296.79	154.54
1297.06	155.6
1297.33	155.583
1297.61	151.328
1297.88	148.128
1298.15	145.981
1298.43	149.11
1298.7	147.014
1298.97	143.834
1299.25	144.865
1299.52	140.622
1299.79	147.988
1300.07	149.041
1300.34	156.457
1300.62	142.747
1300.89	144.862
1301.16	149.078
1301.44	152.239
1301.71	141.688
1301.98	144.879
1302.25	150.182
1302.53	148.082
1302.8	148.086
1303.08	147.027
1303.35	153.354
1303.62	148.056
1303.9	151.197
1304.17	153.303
1304.44	143.802
1304.72	153.306
1304.99	139.576
1305.26	142.726
1305.54	149.034
1305.81	143.722
1306.08	142.634
1306.35	146.819
1306.63	134.133
1306.9	143.612
1307.18	136.228
1307.45	137.295
1307.72	140.462
1308	141.515
1308.27	140.458
1308.54	141.52
1308.81	142.566
1309.09	141.518
1309.36	149.979
1309.63	140.504
1309.91	139.469
1310.18	139.481
1310.45	138.422
1310.73	141.578
1311	136.301
1311.27	133.141
1311.55	140.535
1311.82	144.762
1312.09	142.662
1312.37	151.132
1312.64	142.707
1312.91	140.604
1313.18	132.15
1313.46	144.798
1313.73	136.347
1314	142.667
1314.28	145.823
1314.55	142.655
1314.82	153.219
1315.09	145.844
1315.37	138.471
1315.64	152.214
1315.91	145.897
1316.18	136.41
1316.46	138.516
1316.73	142.731
1317	148.004
1317.28	143.776
1317.55	138.494
1317.82	138.514
1318.09	140.639
1318.37	146.986
1318.64	136.427
1318.91	139.599
1319.18	135.373
1319.46	135.369
1319.73	137.475
1320	141.695
1320.28	142.761
1320.55	144.875
1320.82	133.246
1321.09	127.945
1321.37	139.532
1321.64	142.659
1321.91	138.392
1322.18	136.256
1322.46	146.766
1322.73	136.198
1323	140.396
1323.27	139.321
1323.55	134.022
1323.82	151.961
1324.09	132.987
1324.36	143.534
1324.64	134.039
1324.91	140.367
1325.18	129.818
1325.45	144.589
1325.73	139.28
1326	143.432
1326.27	146.508
1326.54	139.037
1326.81	142.152
1327.09	144.244
1327.36	139.03
1327.63	146.492
1327.9	137.062
1328.18	145.54
1328.45	146.65
1328.72	138.27
1328.99	147.808
1329.27	134.105
1329.54	143.582
1329.81	135.156
1330.08	128.82
1330.35	140.413
1330.63	139.339
1330.9	131.931
1331.17	142.443
1331.44	147.67
1331.71	146.558
1331.99	140.174
1332.26	142.231
1332.53	143.243
1332.8	135.834
1333.07	136.838
1333.35	132.583
1333.62	144.102
1333.89	141.956
1334.16	151.369
1334.43	152.377
1334.71	134.487
1334.98	141.801
1335.25	137.573
1335.52	156.433
1335.79	133.323
1336.07	145.886
1336.34	150.055
1336.61	139.547
1336.88	142.672
1337.15	139.51
1337.43	140.545
1337.7	143.676
1337.97	131.083
1338.24	134.194
1338.51	126.829
1338.78	135.189
1339.06	137.26
1339.33	141.433
1339.6	137.24
1339.87	132.009
1340.14	146.676
1340.42	136.206
1340.69	142.494
1340.96	140.404
1341.23	141.448
1341.5	130.968
1341.77	132.005
1342.04	146.649
1342.32	142.437
1342.59	135.079
1342.86	149.692
1343.13	132.914
1343.4	141.263
1343.67	145.435
1343.95	144.383
1344.22	137.061
1344.49	141.246
1344.76	145.429
1345.03	143.323
1345.3	138.071
1345.58	145.357
1345.85	144.265
1346.12	148.407
1346.39	136.868
1346.66	151.414
1346.93	140.929
1347.2	130.453
1347.47	141.884
1347.75	139.759
1348.02	138.69
1348.29	139.714
1348.56	138.659
1348.83	145.943
1349.1	138.625
1349.37	136.515
1349.65	145.862
1349.92	130.214
1350.19	143.725
1350.46	134.33
1350.73	142.631
1351	137.393
1351.27	132.155
1351.54	136.294
1351.81	137.298
1352.09	143.526
1352.36	135.204
1352.63	144.579
1352.9	138.368
1353.17	140.49
1353.44	143.634
1353.71	150.004
1353.98	140.76
1354.25	142.711
1354.53	143.536
1354.8	137.155
1355.07	143.404
1355.34	147.572
1355.61	135.054
1355.88	144.376
1356.15	142.346
1356.42	136.123
1356.69	145.442
1356.96	140.233
1357.24	138.143
1357.51	143.321
1357.78	143.302
1358.05	151.585
1358.32	140.14
1358.59	145.303
1358.86	144.24
1359.13	140.06
1359.4	152.479
1359.67	141.048
1359.94	149.325
1360.22	139.956
1360.49	144.059
1360.76	135.729
1361.03	138.811
1361.3	146.05
1361.57	138.796
1361.84	134.647
1362.11	140.853
1362.38	146.013
1362.65	144.962
1362.92	151.159
1363.19	145.976
1363.46	140.808
1363.73	140.831
1364	148.098
1364.28	157.439
1364.55	148.114
1364.82	143.96
1365.09	132.551
1365.36	139.775
1365.63	148.026
1365.9	152.13
1366.17	143.816
1366.44	146.887
1366.71	140.646
1366.98	135.434
1367.25	142.623
1367.52	143.633
1367.79	156.02
1368.06	152.939
1368.33	149.849
1368.6	158.127
1368.87	170.541
1369.15	185.024
1369.41	174.7
1369.68	163.337
1369.95	156.08
1370.23	146.757
1370.5	147.773
1370.77	141.534
1371.04	141.515
1371.31	147.687
1371.58	139.383
1371.85	145.53
1372.12	156.824
1372.39	137.163
1372.66	147.427
1372.93	156.666
1373.2	158.701
1373.47	158.679
1373.74	147.322
1374.01	159.672
1374.28	155.536
1374.55	142.13
1374.82	151.392
1375.09	157.561
1375.36	146.21
1375.63	147.245
1375.9	145.202
1376.17	145.198
1376.44	154.478
1376.71	150.318
1376.98	146.161
1377.25	157.436
1377.52	156.341
1377.79	150.185
1378.06	146.105
1378.33	151.311
1378.6	154.476
1378.87	157.653
1379.14	154.586
1379.41	159.734
1379.68	160.743
1379.95	151.443
1380.22	161.716
1380.49	156.496
1380.76	152.252
1381.03	159.383
1381.3	161.379
1381.57	164.491
1381.84	154.165
1382.11	161.287
1382.38	172.507
1382.65	176.541
1382.92	178.53
1383.19	174.356
1383.46	176.358
1383.73	187.587
1384	189.604
1384.27	209.055
1384.54	217.264
1384.81	244.966
1385.08	252.189
1385.34	293.29
1385.61	358.055
1385.88	426.924
1386.15	586.157
1386.42	854.242
1386.69	1272.43
1386.96	1723.47
1387.23	2017.21
1387.5	1711.82
1387.77	1183.03
1388.04	747.438
1388.31	501.717
1388.58	363.144
1388.85	281.721
1389.12	247.176
1389.39	232.957
1389.66	210.386
1389.93	192.952
1390.2	177.488
1390.46	187.607
1390.73	180.361
1391	165.999
1391.27	157.731
1391.54	172.065
1391.81	161.801
1392.08	157.665
1392.35	153.526
1392.62	161.684
1392.89	155.513
1393.16	162.657
1393.43	159.567
1393.7	158.527
1393.97	146.23
1394.23	141.101
1394.5	153.37
1394.77	158.476
1395.04	154.376
1395.31	151.322
1395.58	157.488
1395.85	151.365
1396.12	148.3
1396.39	150.342
1396.66	145.212
1396.93	153.381
1397.2	145.175
1397.46	145.147
1397.73	143.073
1398	154.31
1398.27	145.103
1398.54	135.906
1398.81	157.405
1399.08	150.254
1399.35	141.053
1399.62	151.309
1399.89	147.232
1400.16	144.175
1400.42	142.126
1400.69	143.169
1400.96	153.444
1401.23	150.389
1401.5	150.383
1401.77	157.569
1402.04	144.254
1402.31	138.156
1402.58	146.434
1402.84	140.369
1403.11	149.665
1403.38	147.66
1403.65	146.655
1403.92	148.71
1404.19	148.679
1404.46	155.776
1404.73	150.668
1404.99	147.577
1405.26	151.662
1405.53	147.532
1405.8	163.912
1406.07	151.579
1406.34	166.931
1406.61	174.088
1406.87	166.9
1407.14	172.032
1407.41	184.345
1407.68	182.31
1407.95	208.976
1408.22	200.786
1408.49	230.532
1408.76	228.495
1409.02	220.308
1409.29	205.97
1409.56	186.499
1409.83	175.23
1410.1	181.394
1410.37	153.697
1410.63	163.923
1410.9	152.599
1411.17	156.652
1411.44	138.169
1411.71	146.341
1411.98	135.052
1412.25	143.243
1412.51	139.164
1412.78	144.329
1413.05	143.393
1413.32	138.43
1413.59	146.733
1413.86	148.674
1414.12	137.2
1414.39	142.358
1414.66	136.295
1414.93	135.332
1415.2	128.136
1415.47	134.301
1415.73	143.541
1416	133.278
1416.27	130.208
1416.54	146.65
1416.81	134.341
1417.07	134.354
1417.34	128.207
1417.61	142.605
1417.88	138.51
1418.15	149.821
1418.42	135.438
1418.68	129.277
1418.95	142.643
1419.22	139.562
1419.49	135.453
1419.76	144.687
1420.02	127.194
1420.29	132.304
1420.56	133.307
1420.83	137.387
1421.1	139.41
1421.36	145.543
1421.63	136.293
1421.9	135.274
1422.17	143.523
1422.44	128.166
1422.7	136.428
1422.97	127.249
1423.24	140.733
1423.51	147.036
1423.77	141.552
1424.04	142.282
1424.31	140.269
1424.58	140.134
1424.85	131.939
1425.11	136.076
1425.38	136.17
1425.65	137.213
1425.92	132.066
1426.19	126.982
1426.45	135.179
1426.72	145.411
1426.99	138.196
1427.26	146.359
1427.52	126.844
1427.79	133.963
1428.06	133.919
1428.33	126.73
1428.59	145.151
1428.86	139.01
1429.13	136.97
1429.4	128.789
1429.67	133.925
1429.93	143.164
1430.2	143.195
1430.47	125.811
1430.74	138.138
1431	128.952
1431.27	140.292
1431.54	133.157
1431.81	131.127
1432.07	136.259
1432.34	128.025
1432.61	135.176
1432.87	130.026
1433.14	138.191
1433.41	133.014
1433.68	122.71
1433.95	137.002
1434.21	130.824
1434.48	133.882
1434.75	130.871
1435.01	137.046
1435.28	133.978
1435.55	125.781
1435.82	140.124
1436.08	130.895
1436.35	134.985
1436.62	138.049
1436.89	135.988
1437.15	134.95
1437.42	127.768
1437.69	124.692
1437.95	139.016
1438.22	127.744
1438.49	133.895
1438.76	140.061
1439.02	127.781
1439.29	135.981
1439.56	135.988
1439.82	136.009
1440.09	139.114
1440.36	130.952
1440.63	130.968
1440.89	140.204
1441.16	139.181
1441.43	135.087
1441.69	134.051
1441.96	122.751
1442.23	126.841
1442.49	129.943
1442.76	130.971
1443.03	142.28
1443.3	133.032
1443.56	137.11
1443.83	141.192
1444.1	136.052
1444.36	137.072
1444.63	142.206
1444.9	128.916
1445.16	133.05
1445.43	137.196
1445.7	131.029
1445.97	132.042
1446.23	133.057
1446.5	133.045
1446.77	129.958
1447.03	128.922
1447.3	133.014
1447.57	140.178
1447.83	132.984
1448.1	144.247
1448.37	135.019
1448.63	138.119
1448.9	133.022
1449.17	139.184
1449.43	128.925
1449.7	135.067
1449.97	134.024
1450.23	137.078
1450.5	135.005
1450.77	132.943
1451.03	140.108
1451.3	135.997
1451.57	129.836
1451.83	126.749
1452.1	131.859
1452.37	141.07
1452.63	136.966
1452.9	131.845
1453.17	135.949
1453.43	128.791
1453.7	135.977
1453.97	139.053
1454.23	135.968
1454.5	128.788
1454.77	132.886
1455.03	144.158
1455.3	133.907
1455.56	129.799
1455.83	125.703
1456.1	140.072
1456.36	135.986
1456.63	122.661
1456.9	135.974
1457.16	127.753
1457.43	144.125
1457.7	129.771
1457.96	131.811
1458.23	142.049
1458.49	138.977
1458.76	136.931
1459.03	127.718
1459.29	123.626
1459.56	132.851
1459.82	134.903
1460.09	123.627
1460.36	130.79
1460.62	134.878
1460.89	132.818
1461.16	139.973
1461.42	138.931
1461.69	125.601
1461.95	130.701
1462.22	131.703
1462.49	128.608
1462.75	136.768
1463.02	133.669
1463.28	135.684
1463.55	124.402
1463.82	136.644
1464.08	128.46
1464.35	128.5
1464.61	135.721
1464.88	128.604
1465.15	127.64
1465.41	132.658
1465.68	129.353
1465.94	125.165
1466.21	131.275
1466.48	128.253
1466.74	138.447
1467.01	131.244
1467.27	124.085
1467.54	137.36
1467.8	128.169
1468.07	130.2
1468.34	134.274
1468.6	127.131
1468.87	139.368
1469.13	129.159
1469.4	131.186
1469.67	132.189
1469.93	136.242
1470.2	118.881
1470.46	128.03
1470.73	138.202
1470.99	131.053
1471.26	132.062
1471.53	124.912
1471.79	118.776
1472.06	134.035
1472.32	128.933
1472.59	140.129
1472.85	128.924
1473.12	125.865
1473.39	132.982
1473.65	129.908
1473.92	122.763
1474.18	131.907
1474.45	124.774
1474.71	133.932
1474.98	120.713
1475.24	134.969
1475.51	121.739
1475.78	127.841
1476.04	115.617
1476.31	135.952
1476.57	131.868
1476.84	134.909
1477.1	129.8
1477.37	127.744
1477.63	129.767
1477.9	124.677
1478.16	126.707
1478.43	142.961
1478.69	126.667
1478.96	133.763
1479.22	123.579
1479.49	131.687
1479.76	149.95
1480.02	130.617
1480.29	141.76
1480.55	130.542
1480.82	128.474
1481.08	130.477
1481.35	131.479
1481.61	130.442
1481.88	119.293
1482.14	139.606
1482.41	132.527
1482.67	129.508
1482.94	120.39
1483.2	120.389
1483.47	126.495
1483.73	125.488
1484	125.488
1484.26	132.591
1484.53	128.477
1484.79	123.332
1485.06	129.281
1485.32	118.985
1485.59	127.02
1485.85	126.921
1486.12	127.214
1486.38	126.236
1486.65	119.186
1486.91	127.161
1487.18	126.212
1487.44	115.084
1487.71	130.245
1487.97	123.125
1488.24	131.209
1488.5	131.187
1488.77	127.108
1489.03	137.198
1489.3	123.005
1489.56	139.18
1489.83	132.085
1490.09	124.993
1490.36	122.968
1490.62	126.001
1490.89	142.17
1491.15	133.039
1491.42	124.923
1491.68	135.021
1491.95	128.948
1492.21	121.87
1492.48	132.996
1492.74	130.969
1493	119.841
1493.27	130.956
1493.53	121.857
1493.8	130.945
1494.06	126.896
1494.33	126.897
1494.59	136.003
1494.86	132.981
1495.12	132.975
1495.39	130.932
1495.65	130.893
1495.92	124.784
1496.18	127.777
1496.45	129.772
1496.71	132.782
1496.97	133.775
1497.24	127.7
1497.5	120.633
1497.77	123.659
1498.03	134.753
1498.3	128.694
1498.56	121.63
1498.82	127.687
1499.09	131.728
1499.35	133.751
1499.62	123.666
1499.88	125.695
1500.15	127.724
1500.41	131.766
1500.68	121.669
1500.94	127.721
1501.2	119.64
1501.47	119.627
1501.73	129.695
1502	124.64
1502.26	135.737
1502.52	126.649
1502.79	130.672
1503.05	121.564
1503.32	138.686
1503.58	120.516
1503.85	128.56
1504.11	118.476
1504.37	129.579
1504.64	141.685
1504.9	123.534
1505.17	131.595
1505.43	128.555
1505.7	125.51
1505.96	123.459
1506.22	134.497
1506.49	133.48
1506.75	138.512
1507.02	132.472
1507.28	132.491
1507.54	131.488
1507.81	126.454
1508.07	133.506
1508.34	125.435
1508.6	134.496
1508.86	129.46
1509.13	126.441
1509.39	135.511
1509.66	121.401
1509.92	140.545
1510.18	114.359
1510.45	122.428
1510.71	127.442
1510.98	126.409
1511.24	131.415
1511.5	129.364
1511.77	131.324
1512.03	129.243
1512.29	130.18
1512.56	134.135
1512.82	127.046
1513.08	130.026
1513.35	135.016
1513.61	125.954
1513.88	131.966
1514.14	137.016
1514.4	129.033
1514.67	131.054
1514.93	131.038
1515.2	124.982
1515.46	135.991
1515.72	131.941
1515.99	129.894
1516.25	126.845
1516.51	133.838
1516.78	136.833
1517.04	128.799
1517.3	127.787
1517.57	120.765
1517.83	139.816
1518.09	135.815
1518.36	123.804
1518.62	125.816
1518.88	125.824
1519.15	136.865
1519.41	120.825
1519.67	123.844
1519.94	128.866
1520.2	122.843
1520.47	127.847
1520.73	131.85
1520.99	135.869
1521.26	121.836
1521.52	132.883
1521.78	128.874
1522.05	131.878
1522.31	128.856
1522.57	129.844
1522.84	134.843
1523.1	136.834
1523.36	126.783
1523.62	136.769
1523.89	127.695
1524.15	129.664
1524.41	127.633
1524.68	120.6
1524.94	138.604
1525.2	131.609
1525.47	129.611
1525.73	121.603
1525.99	125.627
1526.26	129.657
1526.52	132.697
1526.78	136.733
1527.05	136.743
1527.31	137.742
1527.57	117.677
1527.84	124.684
1528.1	122.668
1528.36	129.672
1528.63	122.642
1528.89	133.648
1529.15	127.625
1529.41	117.601
1529.68	119.602
1529.94	134.617
1530.2	128.586
1530.47	127.578
1530.73	124.585
1530.99	133.624
1531.25	121.629
