#Acq. time (s)=	30
#Accumulations=	2
#Range (cm-¹)=	1200...2365
#Windows=	3
#Auto scanning=	Off
#Autofocus=	Off
#Macrospot=	Off
#AutoExposure=	Off
#Spike filter=	Multiple accum.
#Delay time (s)=	2
#Binning=	1
#Readout mode=	Signal
#DeNoise=	Off
#ICS correction=	On
#Dark correction=	Off
#Inst. Process=	Off
#Detector Gain=	Best Dynamic
#Detector ADC=	50 kHz HS
#Detector temperature (°C)=	-60.09
#Instrument=	LabRAM HR Evol
#Detector=	SIN-EM FIVIS
#Objective=	x100_VIS_LWD
#Grating=	1800 (450-850nm)
#ND Filter=	100%
#Laser=	532nm_Edge
#Hole=	100.021
#Temperature=	0
#Range=	Visible
#StageXY=	75x50mm Scan+
#StageZ=	Z motor
#X (µm)=	0
#Y (µm)=	0
#Z (µm)=	-56.4
#Full time(mm:ss)=	3:17
#Project=	21_11_26
#Sample=	BU19(2)w
#Site=	
#Title=	BU19(2)w-A-FF2b-FI01-V_1800 (450-850nm)_532nm_Edge_100%_x100_VIS_LWD_H100um_30sX2
#Remark=	
#Date=	26.11.2021 16:06
#Acquired=	26.11.2021 16:06:58
1202.72	91.9483
1203	88.8484
1203.28	85.6441
1203.56	85.5911
1203.84	86.5996
1204.11	80.1039
1204.39	88.6702
1204.67	86.5225
1204.95	86.5307
1205.23	88.6619
1205.5	87.5516
1205.78	83.2175
1206.06	93.9123
1206.34	91.7192
1206.61	86.3116
1206.89	73.4047
1207.17	88.3694
1207.45	90.4755
1207.73	79.742
1208	88.2856
1208.28	88.2693
1208.56	80.7579
1208.84	79.6619
1209.11	83.9165
1209.39	78.5463
1209.67	80.6732
1209.95	84.9446
1210.23	74.2445
1210.5	82.7781
1210.78	75.263
1211.06	80.5707
1211.34	77.34
1211.61	76.2415
1211.89	78.3506
1212.17	71.9185
1212.45	87.8796
1212.72	72.9331
1213	80.3681
1213.28	75.0164
1213.56	80.324
1213.83	81.3767
1214.11	82.422
1214.39	74.9716
1214.67	71.7785
1214.94	74.9714
1215.22	80.2921
1215.5	76.0286
1215.78	86.6684
1216.05	85.5948
1216.33	80.2499
1216.61	81.2832
1216.89	84.4362
1217.16	82.2747
1217.44	83.3101
1217.72	73.7233
1218	82.1961
1218.27	80.0515
1218.55	85.3392
1218.83	77.8902
1219.1	78.9403
1219.38	73.6273
1219.66	78.9234
1219.94	69.3637
1220.21	76.7742
1220.49	79.9517
1220.77	72.5254
1221.04	83.1253
1221.32	84.1755
1221.6	73.5555
1221.88	76.7206
1222.15	77.7561
1222.43	76.6644
1222.71	87.2163
1222.98	73.4118
1223.26	77.6064
1223.54	74.3969
1223.81	85.9904
1224.09	74.3359
1224.37	74.3077
1224.65	76.3993
1224.92	79.5499
1225.2	75.3148
1225.48	72.1439
1225.76	83.7635
1226.03	77.4355
1226.31	75.3317
1226.59	79.549
1226.86	74.2622
1227.14	74.2461
1227.42	70.0097
1227.69	67.8617
1227.97	78.3331
1228.25	74.0708
1228.52	80.3423
1228.8	72.9024
1229.08	78.0988
1229.35	74.9383
1229.63	69.8553
1229.91	81.6136
1230.18	82.5892
1230.46	76.1874
1230.74	78.2647
1231.01	71.9513
1231.29	87.6976
1231.57	82.2698
1231.84	80.1812
1232.12	79.1268
1232.4	78.0713
1232.67	80.1613
1232.95	75.9548
1233.23	78.0496
1233.5	84.3429
1233.78	78.036
1234.06	84.3413
1234.33	78.0434
1234.61	80.1506
1234.89	74.9061
1235.16	75.9676
1235.44	74.9206
1235.71	83.3352
1235.99	69.6761
1236.27	82.297
1236.54	83.345
1236.82	79.1275
1237.1	81.2152
1237.37	83.2972
1237.65	76.9639
1237.93	79.0345
1238.2	86.3527
1238.48	76.8748
1238.76	85.2373
1239.03	74.7243
1239.31	70.5151
1239.58	76.7939
1239.86	87.2668
1240.14	79.9215
1240.41	75.7241
1240.69	79.9145
1240.97	80.963
1241.24	76.7721
1241.52	77.8213
1241.79	78.8605
1242.07	87.2283
1242.35	81.9768
1242.62	75.6888
1242.9	87.2194
1243.18	78.8446
1243.45	88.2877
1243.73	83.0432
1244	84.0902
1244.28	77.8037
1244.56	86.1874
1244.83	78.842
1245.11	75.6877
1245.39	91.3883
1245.66	86.1249
1245.94	87.1403
1246.21	83.9683
1246.49	75.58
1246.76	80.8056
1247.04	86.0377
1247.32	90.2208
1247.59	89.1646
1247.87	92.3006
1248.14	89.1491
1248.42	96.4366
1248.7	92.2323
1248.97	89.0882
1249.25	95.3672
1249.52	81.7745
1249.8	86.9966
1250.08	92.2211
1250.35	88.0366
1250.63	84.8791
1250.9	87.9913
1251.18	86.9244
1251.45	90.0401
1251.73	88.9775
1252.01	88.9601
1252.28	88.9418
1252.56	93.1003
1252.83	84.7287
1253.11	84.7087
1253.39	78.4289
1253.66	86.7672
1253.94	79.461
1254.21	87.8212
1254.49	88.8798
1254.76	94.1176
1255.04	87.8585
1255.31	90.9891
1255.59	98.3042
1255.87	95.1694
1256.14	94.1185
1256.42	97.2536
1256.69	90.9933
1256.97	100.405
1257.24	102.497
1257.52	102.49
1257.79	108.739
1258.07	125.436
1258.35	118.115
1258.62	119.147
1258.9	106.604
1259.17	98.227
1259.45	108.66
1259.72	103.451
1260	110.772
1260.27	117.082
1260.55	113.918
1260.82	124.327
1261.1	120.106
1261.37	133.637
1261.65	137.786
1261.92	147.192
1262.2	162.984
1262.48	168.423
1262.75	175.851
1263.02	195.405
1263.3	219.162
1263.58	231.572
1263.85	235.972
1264.13	226.75
1264.4	208.142
1264.68	186.278
1264.95	173.614
1265.23	157.892
1265.5	133.851
1265.78	138.018
1266.05	116.048
1266.33	115.001
1266.6	110.828
1266.88	116.066
1267.15	112.95
1267.43	102.519
1267.7	116.14
1267.98	108.849
1268.25	113.069
1268.53	114.164
1268.8	106.873
1269.08	106.892
1269.35	94.3356
1269.63	102.728
1269.9	100.624
1270.18	105.838
1270.45	98.473
1270.73	114.154
1271	114.125
1271.28	95.2656
1271.55	118.279
1271.83	102.567
1272.1	99.4334
1272.38	102.595
1272.65	99.4809
1272.93	99.5173
1273.2	105.827
1273.47	104.805
1273.75	106.928
1274.03	112.196
1274.3	106.981
1274.57	105.948
1274.85	112.244
1275.12	109.091
1275.4	113.285
1275.67	113.296
1275.95	111.214
1276.22	108.084
1276.5	119.654
1276.77	108.126
1277.05	107.095
1277.32	107.108
1277.6	124.99
1277.87	120.816
1278.14	125.047
1278.42	130.326
1278.69	129.297
1278.97	137.746
1279.24	143.025
1279.52	148.307
1279.79	168.284
1280.07	172.476
1280.34	189.281
1280.61	202.944
1280.89	233.46
1281.16	294.49
1281.44	352.43
1281.71	428.317
1281.99	574.689
1282.26	782.037
1282.53	1061.08
1282.81	1374.94
1283.08	1801.03
1283.36	2254.67
1283.63	2564.91
1283.91	2630.17
1284.18	2359
1284.45	1764.13
1284.73	1287.36
1285	866.101
1285.28	593.173
1285.55	412.786
1285.83	322.098
1286.1	254.72
1286.37	222.128
1286.65	197.903
1286.92	168.383
1287.2	166.274
1287.47	157.839
1287.75	146.235
1288.02	132.525
1288.29	125.142
1288.57	132.506
1288.84	118.827
1289.12	118.833
1289.39	118.849
1289.66	116.763
1289.94	120.995
1290.21	118.912
1290.49	115.771
1290.76	115.769
1291.03	109.434
1291.31	107.32
1291.58	99.944
1291.86	111.526
1292.13	105.201
1292.4	105.201
1292.68	104.152
1292.95	102.038
1293.22	97.8158
1293.5	107.298
1293.77	96.7957
1294.05	96.834
1294.32	110.581
1294.59	98.9922
1294.87	102.154
1295.14	102.145
1295.42	90.5609
1295.69	91.6526
1295.96	95.9238
1296.24	105.499
1296.51	92.8586
1296.79	101.323
1297.06	102.38
1297.33	93.9124
1297.61	98.1211
1297.88	91.7603
1298.15	93.85
1298.43	84.3194
1298.7	91.7205
1298.97	88.5433
1299.25	90.6385
1299.52	87.4571
1299.79	85.33
1300.07	86.3829
1300.34	95.898
1300.62	83.2359
1300.89	88.5159
1301.16	84.2866
1301.44	93.7839
1301.71	92.7309
1301.98	92.7449
1302.25	85.3643
1302.53	94.8766
1302.8	87.4833
1303.08	83.255
1303.35	90.6416
1303.62	75.8439
1303.9	84.276
1304.17	90.6067
1304.44	87.4391
1304.72	78.9899
1304.99	84.2668
1305.26	76.864
1305.54	86.3492
1305.81	89.4939
1306.08	84.1962
1306.35	81.009
1306.63	79.9364
1306.9	85.2006
1307.18	82.0347
1307.45	84.1496
1307.72	84.1503
1308	87.3115
1308.27	84.1449
1308.54	78.8738
1308.81	80.9767
1309.09	82.0341
1309.36	79.9354
1309.63	91.5511
1309.91	77.8444
1310.18	81.016
1310.45	83.1228
1310.73	70.4525
1311	88.3903
1311.27	81.0051
1311.55	74.6754
1311.82	86.2868
1312.09	75.7369
1312.37	84.1939
1312.64	72.5901
1312.91	82.0967
1313.18	74.7001
1313.46	73.6307
1313.73	87.3503
1314	77.8401
1314.28	85.2213
1314.55	80.9973
1314.82	81.0003
1315.09	69.394
1315.37	77.8475
1315.64	76.7991
1315.91	79.9758
1316.18	85.2657
1316.46	78.9231
1316.73	79.9724
1317	79.9672
1317.28	78.9071
1317.55	69.4006
1317.82	76.8024
1318.09	76.8081
1318.37	81.0368
1318.64	81.0383
1318.91	85.2643
1319.18	78.924
1319.46	74.6941
1319.73	76.8021
1320	84.192
1320.28	77.8573
1320.55	69.4049
1320.82	70.4556
1321.09	75.7248
1321.37	78.8739
1321.64	73.571
1321.91	71.435
1322.18	83.0274
1322.46	75.6176
1322.73	76.6602
1323	84.0301
1323.27	82.9612
1323.55	70.292
1323.82	73.4616
1324.09	82.953
1324.36	78.7347
1324.64	76.6216
1324.91	79.7844
1325.18	77.6714
1325.45	78.729
1325.73	77.6527
1326	75.5081
1326.27	77.5689
1326.54	76.4591
1326.81	68.0179
1327.09	75.375
1327.36	65.9271
1327.63	75.4467
1327.9	79.6856
1328.18	77.6044
1328.45	80.7955
1328.72	73.443
1328.99	80.8494
1329.27	80.8553
1329.54	78.7335
1329.81	81.9053
1330.08	76.6248
1330.35	74.5068
1330.63	77.6596
1330.9	76.5888
1331.17	75.5143
1331.44	67.0573
1331.71	78.6193
1331.99	77.5296
1332.26	75.3951
1332.53	73.267
1332.8	75.3473
1333.07	75.3192
1333.35	83.7022
1333.62	74.2125
1333.89	71.0354
1334.16	86.7711
1334.43	77.2928
1334.71	72.0205
1334.98	81.4484
1335.25	70.9343
1335.52	76.1651
1335.79	76.1488
1336.07	85.5738
1336.34	76.1187
1336.61	74.0082
1336.88	64.5602
1337.15	72.9374
1337.43	73.9768
1337.7	68.7279
1337.97	76.0546
1338.24	71.8427
1338.51	71.824
1338.78	77.0486
1339.06	77.0338
1339.33	72.835
1339.6	74.9251
1339.87	69.6905
1340.14	77.0228
1340.42	65.5033
1340.69	70.7402
1340.96	67.5988
1341.23	80.1627
1341.5	78.0628
1341.77	83.2911
1342.04	71.7625
1342.32	82.2177
1342.59	82.1979
1342.86	72.7568
1343.13	77.9662
1343.4	64.356
1343.67	73.7621
1343.95	77.941
1344.22	71.6635
1344.49	73.7546
1344.76	73.7528
1345.03	85.2475
1345.3	73.73
1345.58	73.7114
1345.85	85.1814
1346.12	77.8445
1346.39	77.8159
1346.66	77.775
1346.93	76.7044
1347.2	82.9389
1347.47	75.6104
1347.75	71.4167
1348.02	78.6989
1348.29	81.8138
1348.56	76.5935
1348.83	81.7968
1349.1	69.2779
1349.37	61.9702
1349.65	79.6635
1349.92	77.564
1350.19	74.4243
1350.46	78.5733
1350.73	80.6386
1351	78.5356
1351.27	71.2312
1351.54	81.6194
1351.81	75.3569
1352.09	80.5484
1352.36	74.3061
1352.63	76.3929
1352.9	77.4478
1353.17	81.6318
1353.44	76.4397
1353.71	81.7109
1353.98	74.4882
1354.25	79.6233
1354.53	74.3012
1354.8	82.5338
1355.07	75.2679
1355.34	73.194
1355.61	79.3989
1355.88	73.1509
1356.15	72.1351
1356.42	81.4901
1356.69	81.4706
1356.96	87.6927
1357.24	81.4516
1357.51	84.5571
1357.78	81.429
1358.05	88.6818
1358.32	76.2081
1358.59	84.495
1358.86	83.4411
1359.13	80.3096
1359.4	87.553
1359.67	82.3528
1359.94	80.2663
1360.22	80.2435
1360.49	86.4361
1360.76	90.5544
1361.03	82.2479
1361.3	76.0243
1361.57	86.3796
1361.84	82.2311
1362.11	86.3675
1362.38	82.2127
1362.65	90.4861
1362.92	86.3336
1363.19	83.2226
1363.46	90.4741
1363.73	93.5948
1364	86.3544
1364.28	91.5429
1364.55	95.6834
1364.82	106.033
1365.09	102.913
1365.36	102.893
1365.63	93.55
1365.9	96.6309
1366.17	95.5722
1366.44	93.4795
1366.71	91.3868
1366.98	92.3923
1367.25	92.3583
1367.52	90.2748
1367.79	101.632
1368.06	98.5427
1368.33	96.4812
1368.6	122.328
1368.87	148.178
1369.15	193.674
1369.41	208.164
1369.68	169.918
1369.95	131.643
1370.23	116.119
1370.5	102.667
1370.77	100.571
1371.04	95.39
1371.31	99.5027
1371.58	95.3418
1371.85	103.567
1372.12	96.3001
1372.39	102.451
1372.66	98.288
1372.93	101.353
1373.2	100.303
1373.47	94.1034
1373.74	104.395
1374.01	96.139
1374.28	102.311
1374.55	110.545
1374.82	106.414
1375.09	103.314
1375.36	112.569
1375.63	108.451
1375.9	114.645
1376.17	102.278
1376.44	114.645
1376.71	118.733
1376.98	103.256
1377.25	118.661
1377.52	117.581
1377.79	108.332
1378.06	121.739
1378.33	115.608
1378.6	135.239
1378.87	132.219
1379.14	128.116
1379.41	128.109
1379.68	137.368
1379.95	120.855
1380.22	143.499
1380.49	142.405
1380.76	136.113
1381.03	152.508
1381.3	152.449
1381.57	162.758
1381.84	162.714
1382.11	158.525
1382.38	168.717
1382.65	173.779
1382.92	180.9
1383.19	190.063
1383.46	205.396
1383.73	227.896
1384	239.133
1384.27	256.525
1384.54	300.618
1384.81	327.302
1385.08	409.402
1385.34	503.887
1385.61	634.411
1385.88	900.437
1386.15	1279.49
1386.42	1924.52
1386.69	3033.11
1386.96	4430.33
1387.23	5550.88
1387.5	5417.16
1387.77	4080.21
1388.04	2576.19
1388.31	1497.47
1388.58	920.074
1388.85	619.176
1389.12	445.498
1389.39	360.559
1389.66	283.577
1389.93	262.044
1390.2	219.865
1390.46	209.434
1390.73	184.747
1391	170.383
1391.27	165.187
1391.54	156.972
1391.81	146.708
1392.08	139.501
1392.35	142.536
1392.62	135.334
1392.89	128.142
1393.16	130.17
1393.43	118.894
1393.7	115.809
1393.97	112.726
1394.23	110.669
1394.5	111.682
1394.77	116.79
1395.04	113.714
1395.31	110.654
1395.58	107.601
1395.85	96.3525
1396.12	110.686
1396.39	103.516
1396.66	106.576
1396.93	101.444
1397.2	102.453
1397.46	104.478
1397.73	105.48
1398	99.3308
1398.27	109.556
1398.54	106.493
1398.81	99.3431
1399.08	95.2561
1399.35	101.398
1399.62	110.624
1399.89	93.236
1400.16	96.3138
1400.42	97.3347
1400.69	99.3941
1400.96	106.585
1401.23	95.3316
1401.5	99.4223
1401.77	98.4086
1402.04	99.4302
1402.31	92.2911
1402.58	97.4675
1402.84	94.449
1403.11	102.699
1403.38	98.6241
1403.65	94.5312
1403.92	101.717
1404.19	105.8
1404.46	109.842
1404.73	99.5963
1404.99	104.715
1405.26	110.856
1405.53	125.194
1405.8	125.169
1406.07	128.221
1406.34	128.199
1406.61	135.358
1406.87	158.92
1407.14	183.525
1407.41	184.562
1407.68	217.381
1407.95	258.402
1408.22	296.351
1408.49	314.824
1408.76	351.756
1409.02	359.985
1409.29	312.84
1409.56	258.505
1409.83	216.468
1410.1	176.473
1410.37	159.033
1410.63	139.513
1410.9	117.941
1411.17	112.777
1411.44	102.501
1411.71	97.3587
1411.98	93.2462
1412.25	90.1679
1412.51	93.253
1412.78	90.2037
1413.05	78.9781
1413.32	78.0453
1413.59	85.2838
1413.86	84.1894
1414.12	72.7974
1414.39	81.0163
1414.66	76.9648
1414.93	78.0262
1415.2	73.9129
1415.47	78.0206
1415.73	76.9927
1416	71.8598
1416.27	71.8643
1416.54	78.0307
1416.81	78.0369
1417.07	80.0978
1417.34	73.9424
1417.61	63.6761
1417.88	70.8738
1418.15	68.8212
1418.42	73.9588
1418.68	80.1261
1418.95	71.907
1419.22	68.8233
1419.49	67.7953
1419.76	72.9244
1420.02	72.909
1420.29	68.7837
1420.56	65.6879
1420.83	73.8874
1421.1	76.9495
1421.36	72.8278
1421.63	64.6087
1421.9	74.8751
1422.17	68.7336
1422.44	65.6743
1422.7	69.8048
1422.97	63.6737
1423.24	76.0737
1423.51	69.9618
1423.77	76.9837
1424.04	64.5164
1424.31	72.7365
1424.58	75.7373
1424.85	74.7118
1425.11	72.6824
1425.38	68.6298
1425.65	73.7655
1425.92	64.5236
1426.19	74.8036
1426.45	62.4867
1426.72	72.7302
1426.99	59.3795
1427.26	63.4617
1427.52	65.4908
1427.79	68.5353
1428.06	68.5108
1428.33	66.4501
1428.59	55.1816
1428.86	69.5152
1429.13	63.3741
1429.4	56.2095
1429.67	67.4804
1429.93	65.4408
1430.2	60.3307
1430.47	62.3952
1430.74	61.382
1431	61.3995
1431.27	69.6321
1431.54	65.5501
1431.81	56.3227
1432.07	57.3476
1432.34	60.4138
1432.61	60.3977
1432.87	61.4125
1433.14	68.5704
1433.41	57.2663
1433.68	60.314
1433.95	54.1422
1434.21	62.3195
1434.48	63.3355
1434.75	53.1193
1435.01	61.3265
1435.28	60.3027
1435.55	65.4252
1435.82	60.2985
1436.08	59.2693
1436.35	59.2639
1436.62	61.3072
1436.89	57.2019
1437.15	55.1459
1437.42	59.2365
1437.69	59.2332
1437.95	58.2007
1438.22	56.1478
1438.49	62.2941
1438.76	59.2292
1439.02	55.1355
1439.29	60.258
1439.56	57.186
1439.82	57.1935
1440.09	50.0306
1440.36	58.2452
1440.63	56.2003
1440.89	54.1513
1441.16	53.1251
1441.43	57.2286
1441.69	59.2734
1441.96	54.1353
1442.23	57.2044
1442.49	55.164
1442.76	60.291
1443.03	55.1734
1443.3	53.1135
1443.56	68.483
1443.83	54.1183
1444.1	55.1362
1444.36	56.1576
1444.63	61.2853
1444.9	58.2253
1445.16	53.1096
1445.43	57.2296
1445.7	61.3269
1445.97	56.19
1446.23	57.2092
1446.5	56.1769
1446.77	56.1709
1447.03	61.2927
1447.3	57.1841
1447.57	55.1257
1447.83	56.1422
1448.1	54.0844
1448.37	53.0572
1448.63	65.3694
1448.9	57.178
1449.17	58.2055
1449.43	52.0491
1449.7	57.1708
1449.97	57.1615
1450.23	49.9732
1450.5	61.2396
1450.77	56.1073
1451.03	60.201
1451.3	65.3189
1451.57	50.9642
1451.83	54.0314
1452.1	51.975
1452.37	55.0429
1452.63	47.8672
1452.9	56.0624
1453.17	52.9897
1453.43	51.9695
1453.7	49.9233
1453.97	54.0213
1454.23	52.991
1454.5	49.9121
1454.77	48.8857
1455.03	54.0077
1455.3	55.029
1455.56	57.0729
1455.83	49.8998
1456.1	45.8076
1456.36	50.935
1456.63	40.6837
1456.9	49.9022
1457.16	48.8671
1457.43	51.9309
1457.7	51.9251
1457.96	50.8955
1458.23	51.916
1458.49	46.7927
1458.76	51.9142
1459.03	46.7931
1459.29	46.7937
1459.56	44.7444
1459.82	53.965
1460.09	45.7647
1460.36	57.0294
1460.62	51.9013
1460.89	50.8708
1461.16	49.8391
1461.42	47.7825
1461.69	47.7743
1461.95	51.8609
1462.22	51.8502
1462.49	52.8622
1462.75	46.7097
1463.02	45.6743
1463.28	47.7074
1463.55	43.6034
1463.82	42.5696
1464.08	48.7006
1464.35	47.6917
1464.61	48.7358
1464.88	49.7756
1465.15	45.7017
1465.41	55.8962
1465.68	48.6405
1465.94	48.5978
1466.21	45.5296
1466.48	46.5631
1466.74	53.7017
1467.01	46.5338
1467.27	49.586
1467.54	45.5082
1467.8	46.5236
1468.07	48.5585
1468.34	52.6348
1468.6	44.4716
1468.87	50.5889
1469.13	46.5042
1469.4	48.5373
1469.67	54.648
1469.93	49.5376
1470.2	45.4464
1470.46	52.5697
1470.73	48.4844
1470.99	44.4011
1471.26	49.4901
1471.53	48.4625
1471.79	49.4694
1472.06	44.3687
1472.32	50.4734
1472.59	48.433
1472.85	49.4481
1473.12	52.4993
1473.39	52.4934
1473.65	46.3758
1473.92	45.3489
1474.18	45.3414
1474.45	53.4774
1474.71	46.3519
1474.98	49.4076
1475.24	47.3735
1475.51	41.2653
1475.78	51.4401
1476.04	49.398
1476.31	47.3542
1476.57	50.4
1476.84	51.411
1477.1	45.2973
1477.37	48.339
1477.63	51.3839
1477.9	52.3972
1478.16	46.2923
1478.43	48.3186
1478.69	51.3569
1478.96	47.2813
1479.22	42.1906
1479.49	49.2944
1479.76	47.251
1480.02	46.2228
1480.29	49.2576
1480.55	45.1767
1480.82	45.1613
1481.08	45.1502
1481.35	44.1295
1481.61	42.0909
1481.88	48.1803
1482.14	53.26
1482.41	46.1638
1482.67	48.202
1482.94	45.1621
1483.2	48.2059
1483.47	46.1793
1483.73	45.1652
1484	46.1789
1484.26	45.1599
1484.53	44.1242
1484.79	42.0678
1485.06	41.0059
1485.32	46.0067
1485.59	51.0396
1485.85	47.9647
1486.12	47.0644
1486.38	45.0495
1486.65	44.0515
1486.91	42.9886
1487.18	48.0757
1487.44	50.1081
1487.71	47.0517
1487.97	46.0257
1488.24	45.0044
1488.5	37.9069
1488.77	51.057
1489.03	46.9939
1489.3	41.9233
1489.56	40.9047
1489.83	50.0048
1490.09	46.9643
1490.36	47.9738
1490.62	40.8896
1490.89	47.9632
1491.15	47.9514
1491.42	47.9398
1491.68	42.878
1491.95	46.9181
1492.21	49.949
1492.48	46.9162
1492.74	48.9347
1493	48.9302
1493.27	45.8938
1493.53	43.8699
1493.8	35.7779
1494.06	47.9045
1494.33	43.8598
1494.59	44.8719
1494.86	38.8079
1495.12	48.914
1495.39	47.8932
1495.65	44.8452
1495.92	44.8265
1496.18	47.8408
1496.45	50.8589
1496.71	44.7925
1496.97	45.7943
1497.24	44.7766
1497.5	44.7743
1497.77	41.7441
1498.03	44.7674
1498.3	44.7644
1498.56	43.7536
1498.82	45.7712
1499.09	47.7894
1499.35	46.7803
1499.62	49.8097
1499.88	49.8124
1500.15	42.748
1500.41	44.7669
1500.68	51.8317
1500.94	45.7707
1501.2	51.8244
1501.47	46.7697
1501.73	49.786
1502	43.726
1502.26	48.7683
1502.52	46.7463
1502.79	43.7127
1503.05	46.7275
1503.32	43.6902
1503.58	44.6915
1503.85	44.6812
1504.11	43.6708
1504.37	40.648
1504.64	41.6565
1504.9	41.6549
1505.17	49.7182
1505.43	39.6279
1505.7	41.636
1505.96	45.6534
1506.22	47.6496
1506.49	41.5996
1506.75	44.6186
1507.02	48.6486
1507.28	38.5778
1507.54	46.6387
1507.81	46.639
1508.07	43.6135
1508.34	39.578
1508.6	44.6117
1508.86	47.6335
1509.13	43.6028
1509.39	43.6016
1509.66	43.599
1509.92	47.6275
1510.18	39.569
1510.45	49.6479
1510.71	42.5828
1510.98	41.5649
1511.24	47.5961
1511.5	44.5596
1511.77	41.5195
1512.03	46.5248
1512.29	45.4922
1512.56	45.4669
1512.82	46.4497
1513.08	40.4093
1513.35	45.4182
1513.61	44.4032
1513.88	44.3975
1514.14	39.3862
1514.4	44.4224
1514.67	44.425
1514.93	46.4267
1515.2	42.397
1515.46	47.4029
1515.72	45.3811
1515.99	39.3445
1516.25	43.3427
1516.51	36.311
1516.78	47.336
1517.04	43.3193
1517.3	49.3303
1517.57	46.3191
1517.83	43.3101
1518.09	41.306
1518.36	48.3323
1518.62	39.3065
1518.88	45.3257
1519.15	37.3019
1519.41	46.332
1519.67	47.3371
1519.94	50.3475
1520.2	48.3379
1520.47	47.3282
1520.73	48.326
1520.99	40.3015
1521.26	46.3235
1521.52	41.309
1521.78	44.3189
1522.05	42.3084
1522.31	49.3255
1522.57	44.302
1522.84	43.2915
1523.1	48.2997
1523.36	47.2866
1523.62	40.2525
1523.89	45.2444
1524.15	39.2189
1524.41	43.2148
1524.68	43.205
1524.94	46.1999
1525.2	42.1978
1525.47	44.2009
1525.73	47.2052
1525.99	46.2088
1526.26	45.2141
1526.52	43.2205
1526.78	42.2256
1527.05	46.2368
1527.31	42.2242
1527.57	48.2295
1527.84	51.2308
1528.1	50.2224
1528.36	43.2021
1528.63	48.2042
1528.89	48.197
1529.15	45.1854
1529.41	42.1762
1529.68	46.18
1529.94	46.1749
1530.2	44.1624
1530.47	48.164
1530.73	44.1608
1530.99	43.1667
