#Acq. time (s)=	40
#Accumulations=	2
#Range (cm-¹)=	1200...2365
#Windows=	3
#Auto scanning=	Off
#Autofocus=	Off
#Macrospot=	Off
#AutoExposure=	Off
#Spike filter=	Multiple accum.
#Delay time (s)=	2
#Binning=	1
#Readout mode=	Signal
#DeNoise=	Off
#ICS correction=	On
#Dark correction=	Off
#Inst. Process=	Off
#Detector Gain=	Best Dynamic
#Detector ADC=	50 kHz EM
#Detector EM gain=	400
#Detector temperature (°C)=	-60.09
#Instrument=	LabRAM HR Evol
#Detector=	SIN-EM FIVIS
#Objective=	x100_VIS_LWD
#Grating=	1800 (450-850nm)
#ND Filter=	100%
#Laser=	532nm_Edge
#Hole=	30.0125
#Temperature=	0
#Range=	Visible
#StageXY=	75x50mm Scan+
#StageZ=	Z motor
#X (µm)=	0
#Y (µm)=	0
#Z (µm)=	10.2
#Full time(mm:ss)=	4:24
#Project=	21_11_26
#Sample=	BU32
#Site=	
#Title=	BU32-A-incC-FI03-V_1800 (450-850nm)_532nm_Edge_100%_x100_VIS_LWD_H30um_40sX2
#Remark=	
#Date=	26.11.2021 18:11
#Acquired=	26.11.2021 18:11:05
1202.72	477.486
1203	516.949
1203.28	498.807
1203.56	508.201
1203.84	475.537
1204.11	455.953
1204.39	486.949
1204.67	459.024
1204.95	478.431
1205.23	455.766
1205.5	481.381
1205.78	480.11
1206.06	509.947
1206.34	462.49
1206.61	478.362
1206.89	471.706
1207.17	512.202
1207.45	467.018
1207.73	490.458
1208	490.341
1208.28	519.163
1208.56	510.496
1208.84	440.803
1209.11	477.049
1209.39	438.431
1209.67	475.8
1209.95	462.953
1210.23	461.843
1210.5	485.264
1210.78	477.584
1211.06	458.171
1211.34	466.565
1211.61	502.674
1211.89	447.048
1212.17	487.395
1212.45	485.076
1212.72	487.077
1213	480.543
1213.28	497.442
1213.56	463.266
1213.83	458.949
1214.11	474.822
1214.39	489.749
1214.67	474.863
1214.94	480.193
1215.22	496.16
1215.5	468.461
1215.78	467.374
1216.05	449.24
1216.33	485.309
1216.61	442.584
1216.89	468.978
1217.16	456.037
1217.44	460.148
1217.72	484.449
1218	460.946
1218.27	477.828
1218.55	474.538
1218.83	475.5
1219.1	483.935
1219.38	456.313
1219.66	485.979
1219.94	456.214
1220.21	446.588
1220.49	462.484
1220.77	479.457
1221.04	460.341
1221.32	494.23
1221.6	449.611
1221.88	467.553
1222.15	470.597
1222.43	444.989
1222.71	476.553
1222.98	464.674
1223.26	469.743
1223.54	430.407
1223.81	452.425
1224.09	464.946
1224.37	481.683
1224.65	446.719
1224.92	440.299
1225.2	430.74
1225.48	471.896
1225.76	483.567
1226.03	475.173
1226.31	462.563
1226.59	476.264
1226.86	493.124
1227.14	446.584
1227.42	480.282
1227.69	484.255
1227.97	472.198
1228.25	448.742
1228.52	477.961
1228.8	482.766
1229.08	445.619
1229.35	503.375
1229.63	460.379
1229.91	449.747
1230.18	465.143
1230.46	440.472
1230.74	496.137
1231.01	450.898
1231.29	443.264
1231.57	451.851
1231.84	454.036
1232.12	461.383
1232.4	432.997
1232.67	450.807
1232.95	451.847
1233.23	470.733
1233.5	443.375
1233.78	458.071
1234.06	453.894
1234.33	450.784
1234.61	463.438
1234.89	476.117
1235.16	443.614
1235.44	446.804
1235.71	492.048
1235.99	444.799
1236.27	459.556
1236.54	462.703
1236.82	456.338
1237.1	493.056
1237.37	414.133
1237.65	456.015
1237.93	465.304
1238.2	443.093
1238.48	470.218
1238.76	458.511
1239.03	445.8
1239.31	462.5
1239.58	446.711
1239.86	430.941
1240.14	463.408
1240.41	451.863
1240.69	420.416
1240.97	474.936
1241.24	476.01
1241.52	448.772
1241.79	448.732
1242.07	465.42
1242.35	437.074
1242.62	486.335
1242.9	454.926
1243.18	472.809
1243.45	451.907
1243.73	440.371
1244	429.892
1244.28	460.323
1244.56	445.642
1244.83	438.276
1245.11	453.955
1245.39	455.954
1245.66	436.982
1245.94	417.98
1246.21	441.921
1246.49	476.404
1246.76	496.255
1247.04	479.51
1247.32	443.914
1247.59	436.55
1247.87	451.195
1248.14	460.565
1248.42	513.746
1248.7	464.49
1248.97	474.926
1249.25	446.716
1249.52	458.256
1249.8	429.986
1250.08	465.533
1250.35	479.135
1250.63	452.894
1250.9	426.642
1251.18	434.909
1251.45	442.139
1251.73	457.734
1252.01	466.012
1252.28	415.796
1252.56	461.666
1252.83	423.996
1253.11	437.476
1253.39	434.263
1253.66	469.7
1253.94	466.572
1254.21	460.385
1254.49	438.552
1254.76	472.059
1255.04	463.746
1255.31	453.305
1255.59	461.695
1255.87	454.386
1256.14	439.745
1256.42	453.342
1256.69	446.068
1256.97	467.024
1257.24	433.621
1257.52	429.421
1257.79	489.933
1258.07	442.899
1258.35	439.733
1258.62	454.314
1258.9	450.088
1259.17	449.983
1259.45	446.841
1259.72	446.894
1260	476.191
1260.27	429.39
1260.55	457.472
1260.82	467.801
1261.1	467.633
1261.37	455.001
1261.65	441.368
1261.92	439.344
1262.2	434.514
1262.48	418.355
1262.75	466.743
1263.02	446.136
1263.3	457.076
1263.58	456.868
1263.85	434.353
1264.13	452.443
1264.4	452.869
1264.68	427.991
1264.95	424.587
1265.23	464.199
1265.5	443.296
1265.78	455.799
1266.05	441.09
1266.33	450.492
1266.6	486.053
1266.88	462.082
1267.15	423.494
1267.43	444.503
1267.7	424.753
1267.98	490.781
1268.25	435.482
1268.53	472.318
1268.8	447.355
1269.08	490.391
1269.35	425.516
1269.63	466.434
1269.9	455.93
1270.18	448.498
1270.45	468.259
1270.73	490.146
1271	443.973
1271.28	447.037
1271.55	457.473
1271.83	455.32
1272.1	465.82
1272.38	441.855
1272.65	459.779
1272.93	461.003
1273.2	428.648
1273.47	456.006
1273.75	481.286
1274.03	448.911
1274.3	465.81
1274.57	449.106
1274.85	464.862
1275.12	440.719
1275.4	461.7
1275.67	456.507
1275.95	490.157
1276.22	458.762
1276.5	449.427
1276.77	469.456
1277.05	453.798
1277.32	447.561
1277.6	434.016
1277.87	474.05
1278.14	486.775
1278.42	422.753
1278.69	456.476
1278.97	452.401
1279.24	454.579
1279.52	478.85
1279.79	469.358
1280.07	456.698
1280.34	465.059
1280.61	433.491
1280.89	467.183
1281.16	447.243
1281.44	443.147
1281.71	470.651
1281.99	448.612
1282.26	446.498
1282.53	450.752
1282.81	435.012
1283.08	464.415
1283.36	452.615
1283.63	438.554
1283.91	454.157
1284.18	450.996
1284.45	453.338
1284.73	449.008
1285	473.326
1285.28	444.868
1285.55	452.026
1285.83	467.665
1286.1	430.825
1286.37	429.867
1286.65	461.456
1286.92	450.843
1287.2	425.569
1287.47	458.181
1287.75	451.8
1288.02	439.092
1288.29	430.627
1288.57	453.776
1288.84	420.113
1289.12	435.932
1289.39	450.735
1289.66	441.341
1289.94	453.007
1290.21	425.719
1290.49	441.595
1290.76	450.022
1291.03	422.588
1291.31	426.779
1291.58	452.052
1291.86	443.622
1292.13	416.225
1292.4	459.41
1292.68	445.749
1292.95	436.246
1293.22	438.32
1293.5	438.344
1293.77	440.595
1294.05	424.968
1294.32	448.347
1294.59	467.382
1294.87	441.022
1295.14	450.482
1295.42	476.931
1295.69	453.922
1295.96	424.612
1296.24	432.311
1296.51	445.174
1296.79	450.507
1297.06	455.806
1297.33	421.938
1297.61	449.341
1297.88	448.195
1298.15	450.208
1298.43	471.211
1298.7	454.37
1298.97	448
1299.25	448.983
1299.52	458.425
1299.79	453.076
1300.07	423.517
1300.34	457.377
1300.62	446.867
1300.89	463.775
1301.16	446.862
1301.44	447.903
1301.71	463.764
1301.98	459.62
1302.25	426.951
1302.53	443.89
1302.8	435.454
1303.08	440.732
1303.35	478.73
1303.62	448.051
1303.9	454.309
1304.17	415.225
1304.44	438.467
1304.72	439.526
1304.99	418.403
1305.26	431.023
1305.54	440.45
1305.81	446.684
1306.08	434.98
1306.35	441.205
1306.63	439.011
1306.9	442.137
1307.18	422.1
1307.45	432.686
1307.72	433.755
1308	461.174
1308.27	437.968
1308.54	434.829
1308.81	415.82
1309.09	417.954
1309.36	433.845
1309.63	434.963
1309.91	411.812
1310.18	464.62
1310.45	409.733
1310.73	451.919
1311	445.589
1311.27	445.61
1311.55	440.359
1311.82	445.658
1312.09	444.64
1312.37	437.328
1312.64	422.612
1312.91	476.495
1313.18	437.409
1313.46	427.84
1313.73	452.108
1314	432.012
1314.28	426.705
1314.55	402.429
1314.82	451.011
1315.09	446.835
1315.37	412.05
1315.64	431.108
1315.91	454.4
1316.18	416.436
1316.46	435.432
1316.73	430.126
1317	449.119
1317.28	464.949
1317.55	421.651
1317.82	435.444
1318.09	391.123
1318.37	433.405
1318.64	476.738
1318.91	468.299
1319.18	423.931
1319.46	418.638
1319.73	451.371
1320	454.526
1320.28	447.163
1320.55	441.888
1320.82	454.542
1321.09	450.253
1321.37	463.883
1321.64	414.135
1321.91	428.782
1322.18	430.817
1322.46	427.533
1322.73	429.586
1323	458.003
1323.27	430.521
1323.55	455.742
1323.82	444.198
1324.09	433.674
1324.36	454.772
1324.64	448.434
1324.91	467.422
1325.18	444.213
1325.45	438.97
1325.73	454.673
1326	450.256
1326.27	438.416
1326.54	453.893
1326.81	451.658
1327.09	443.209
1327.36	443.358
1327.63	449.969
1327.9	417.472
1328.18	443.965
1328.45	434.65
1328.72	436.93
1328.99	457.114
1329.27	432.891
1329.54	414.905
1329.81	422.336
1330.08	446.585
1330.35	439.166
1330.63	452.823
1330.9	435.868
1331.17	437.875
1331.44	453.557
1331.71	446.008
1331.99	461.613
1332.26	416.185
1332.53	429.754
1332.8	413.842
1333.07	441.05
1333.35	419.866
1333.62	429.191
1333.89	455.333
1334.16	433.144
1334.43	442.478
1334.71	433.963
1334.98	443.307
1335.25	449.513
1335.52	418.998
1335.79	459.836
1336.07	440.876
1336.34	447.097
1336.61	422.914
1336.88	456.409
1337.15	439.585
1337.43	448.979
1337.7	449.991
1337.97	452.039
1338.24	468.693
1338.51	483.253
1338.78	403.582
1339.06	433.886
1339.33	465.254
1339.6	426.499
1339.87	436.988
1340.14	475.759
1340.42	407.702
1340.69	459.034
1340.96	439.152
1341.23	460.09
1341.5	466.354
1341.77	413.965
1342.04	477.789
1342.32	432.699
1342.59	417.955
1342.86	468.071
1343.13	463.767
1343.4	475.209
1343.67	462.624
1343.95	440.647
1344.22	474.112
1344.49	451.113
1344.76	460.527
1345.03	468.853
1345.3	468.778
1345.58	457.175
1345.85	468.528
1346.12	424.531
1346.39	486.01
1346.66	444.015
1346.93	473.095
1347.2	485.474
1347.47	452.994
1347.75	447.656
1348.02	451.746
1348.29	445.436
1348.56	436.018
1348.83	459.957
1349.1	482.811
1349.37	431.674
1349.65	434.716
1349.92	475.254
1350.19	448.097
1350.46	437.609
1350.73	454.184
1351	462.4
1351.27	475.809
1351.54	461.171
1351.81	443.375
1352.09	461.02
1352.36	415.261
1352.63	432.99
1352.9	451.807
1353.17	474.836
1353.44	450.977
1353.71	441.985
1353.98	473.67
1354.25	457.606
1354.53	478.765
1354.8	426.333
1355.07	435.732
1355.34	450.317
1355.61	437.697
1355.88	439.696
1356.15	452.312
1356.42	468.973
1356.69	453.293
1356.96	425.205
1357.24	446.98
1357.51	462.515
1357.78	456.226
1358.05	466.538
1358.32	423.9
1358.59	427.977
1358.86	463.187
1359.13	466.207
1359.4	430.851
1359.67	448.422
1359.94	463.921
1360.22	458.619
1360.49	464.704
1360.76	449.034
1361.03	427.197
1361.3	439.594
1361.57	446.84
1361.84	472.719
1362.11	440.585
1362.38	417.75
1362.65	443.595
1362.92	452.872
1363.19	467.353
1363.46	448.745
1363.73	429.146
1364	446.809
1364.28	451.009
1364.55	492.44
1364.82	418.866
1365.09	467.501
1365.36	452.922
1365.63	435.223
1365.9	440.296
1366.17	442.268
1366.44	446.309
1366.71	465.858
1366.98	434.704
1367.25	453.163
1367.52	412.786
1367.79	452.017
1368.06	433.473
1368.33	465.551
1368.6	435.603
1368.87	444.934
1369.15	457.368
1369.41	465.679
1369.68	420.216
1369.95	478.064
1370.23	472.842
1370.5	435.578
1370.77	468.535
1371.04	460.21
1371.31	457.028
1371.58	406.297
1371.85	465.012
1372.12	412.197
1372.39	467.75
1372.66	460.37
1372.93	414.886
1373.2	434.403
1373.47	448.776
1373.74	430.172
1374.01	434.25
1374.28	443.488
1374.55	451.701
1374.82	460.945
1375.09	462.971
1375.36	449.523
1375.63	434.091
1375.9	457.841
1376.17	473.284
1376.44	454.768
1376.71	462.894
1376.98	461.753
1377.25	480.131
1377.52	471.702
1377.79	452.21
1378.06	467.766
1378.33	496.786
1378.6	462.002
1378.87	503.49
1379.14	475.738
1379.41	504.59
1379.68	476.692
1379.95	477.656
1380.22	503.321
1380.49	501.048
1380.76	486.238
1381.03	474.7
1381.3	477.61
1381.57	482.833
1381.84	471.399
1382.11	496.878
1382.38	513.07
1382.65	506.696
1382.92	504.461
1383.19	503.244
1383.46	502.079
1383.73	543.982
1384	508
1384.27	466.921
1384.54	501.796
1384.81	463.903
1385.08	498.857
1385.34	439.498
1385.61	504.321
1385.88	481.873
1386.15	451.179
1386.42	491.287
1386.69	461.603
1386.96	473.974
1387.23	492.457
1387.5	508.489
1387.77	470.637
1388.04	455.527
1388.31	499.213
1388.58	499.797
1388.85	459.578
1389.12	458.083
1389.39	454.264
1389.66	467.649
1389.93	433.818
1390.2	433.674
1390.46	439.494
1390.73	443.438
1391	439.322
1391.27	483.218
1391.54	447.308
1391.81	421.65
1392.08	412.334
1392.35	456.274
1392.62	439.789
1392.89	437.669
1393.16	460.133
1393.43	435.515
1393.7	448.779
1393.97	467.161
1394.23	430.284
1394.5	434.349
1394.77	428.184
1395.04	444.54
1395.31	421.053
1395.58	443.641
1395.85	458.026
1396.12	450.884
1396.39	430.399
1396.66	452.883
1396.93	428.269
1397.2	451.752
1397.46	413.814
1397.73	441.359
1398	435.182
1398.27	442.338
1398.54	450.553
1398.81	412.756
1399.08	428.133
1399.35	423.042
1399.62	420.045
1399.89	429.303
1400.16	437.534
1400.42	449.814
1400.69	400.742
1400.96	442.825
1401.23	402.941
1401.5	410.096
1401.77	413.22
1402.04	399.905
1402.31	437.947
1402.58	433.07
1402.84	422.052
1403.11	421.214
1403.38	441.878
1403.65	442.974
1403.92	433.741
1404.19	446.998
1404.46	420.078
1404.73	413.986
1404.99	443.703
1405.26	419.034
1405.53	401.527
1405.8	447.599
1406.07	449.574
1406.34	409.525
1406.61	413.584
1406.87	411.503
1407.14	438.174
1407.41	432.057
1407.68	416.719
1407.95	389.065
1408.22	427.025
1408.49	440.381
1408.76	416.825
1409.02	440.444
1409.29	419.974
1409.56	424.114
1409.83	429.278
1410.1	427.252
1410.37	433.411
1410.63	441.533
1410.9	432.187
1411.17	406.43
1411.44	385.843
1411.71	408.321
1411.98	399.049
1412.25	414.405
1412.51	425.736
1412.78	433.034
1413.05	400.488
1413.32	408.153
1413.59	409.43
1413.86	422.467
1414.12	427.044
1414.39	416.885
1414.66	420.243
1414.93	427.627
1415.2	435.815
1415.47	398.873
1415.73	401.958
1416	431.747
1416.27	398.927
1416.54	437.988
1416.81	445.223
1417.07	422.676
1417.34	399.102
1417.61	452.575
1417.88	420.774
1418.15	414.635
1418.42	445.473
1418.68	399.252
1418.95	420.855
1419.22	418.808
1419.49	435.263
1419.76	410.557
1420.02	402.264
1420.29	404.241
1420.56	419.575
1420.83	409.225
1421.1	432.752
1421.36	413.174
1421.63	400.823
1421.9	415.219
1422.17	407.118
1422.44	411.365
1422.7	429.999
1422.97	445.651
1423.24	414.139
1423.51	434.07
1423.77	434.084
1424.04	434.212
1424.31	412.796
1424.58	403.184
1424.85	418.557
1425.11	436.102
1425.38	400.511
1425.65	416.976
1425.92	427.176
1426.19	418.092
1426.45	441.659
1426.72	389.276
1426.99	401.484
1427.26	420.855
1427.52	436.109
1427.79	419.544
1428.06	411.218
1428.33	426.514
1428.59	421.371
1428.86	435.714
1429.13	448.03
1429.4	420.422
1429.67	418.425
1429.93	436.93
1430.2	439.075
1430.47	416.649
1430.74	424.94
1431	396.361
1431.27	444.751
1431.54	466.456
1431.81	433.695
1432.07	426.515
1432.34	435.677
1432.61	419.162
1432.87	416.025
1433.14	422.056
1433.41	438.305
1433.68	423.778
1433.95	394.934
1434.21	405.082
1434.48	415.284
1434.75	442.115
1435.01	440.161
1435.28	431.984
1435.55	431.99
1435.82	417.638
1436.08	435.041
1436.35	409.402
1436.62	416.549
1436.89	418.562
1437.15	432.867
1437.42	394.934
1437.69	412.339
1437.95	439.949
1438.22	422.52
1438.49	452.245
1438.76	408.271
1439.02	427.776
1439.29	470.82
1439.56	411.425
1439.82	414.566
1440.09	420.812
1440.36	436.311
1440.63	407.659
1440.89	425.119
1441.16	422.052
1441.43	445.666
1441.69	426.152
1441.96	449.666
1442.23	410.673
1442.49	444.599
1442.76	416.926
1443.03	431.371
1443.3	440.55
1443.56	435.352
1443.83	436.319
1444.1	426.027
1444.36	456.767
1444.63	432.195
1444.9	417.965
1445.16	441.66
1445.43	423.335
1445.7	419.199
1445.97	422.241
1446.23	398.615
1446.5	412.944
1446.77	430.352
1447.03	424.169
1447.3	461.057
1447.57	424.1
1447.83	408.67
1448.1	433.237
1448.37	421.96
1448.63	446.645
1448.9	405.724
1449.17	427.29
1449.43	427.287
1449.7	440.587
1449.97	438.482
1450.23	408.681
1450.5	445.522
1450.77	433.187
1451.03	443.406
1451.3	418.776
1451.57	423.868
1451.83	401.285
1452.1	423.79
1452.37	423.761
1452.63	447.31
1452.9	415.558
1453.17	409.433
1453.43	434.076
1453.7	430.02
1453.97	406.456
1454.23	408.48
1454.5	452.523
1454.77	418.71
1455.03	421.788
1455.3	424.853
1455.56	449.419
1455.83	411.518
1456.1	392.12
1456.36	422.908
1456.63	441.359
1456.9	438.25
1457.16	426.908
1457.43	412.499
1457.7	401.202
1457.96	427.813
1458.23	414.482
1458.49	431.901
1458.76	425.768
1459.03	420.672
1459.29	412.498
1459.56	395.097
1459.82	429.945
1460.09	438.128
1460.36	414.539
1460.62	428.854
1460.89	385.798
1461.16	388.832
1461.42	409.267
1461.69	416.385
1461.95	409.161
1462.22	420.356
1462.49	441.776
1462.75	419.178
1463.02	431.367
1463.28	412.86
1463.55	412.765
1463.82	390.188
1464.08	403.467
1464.35	397.458
1464.61	426.291
1464.88	420.303
1465.15	410.26
1465.41	395.626
1465.68	403.088
1465.94	397.661
1466.21	413.953
1466.48	414.081
1466.74	422.21
1467.01	429.171
1467.27	420.955
1467.54	414.876
1467.8	433.215
1468.07	429.106
1468.34	408.688
1468.6	417.864
1468.87	433.157
1469.13	422.935
1469.4	388.219
1469.67	401.431
1469.93	387.083
1470.2	432.865
1470.46	417.498
1470.73	413.368
1470.99	431.662
1471.26	402.087
1471.53	399.996
1471.79	419.272
1472.06	413.107
1472.32	406.97
1472.59	422.23
1472.85	393.71
1473.12	389.627
1473.39	382.473
1473.65	413.977
1473.92	430.203
1474.18	450.508
1474.45	404.684
1474.71	425.038
1474.98	405.74
1475.24	403.733
1475.51	417.99
1475.78	399.658
1476.04	428.12
1476.31	413.819
1476.57	412.763
1476.84	397.468
1477.1	401.476
1477.37	447.181
1477.63	403.415
1477.9	396.284
1478.16	398.31
1478.43	418.602
1478.69	433.773
1478.96	395.085
1479.22	412.307
1479.49	417.32
1479.76	428.42
1480.02	420.204
1480.29	418.087
1480.55	405.758
1480.82	402.599
1481.08	398.463
1481.35	364.946
1481.61	412.566
1481.88	409.561
1482.14	422.819
1482.41	383.315
1482.67	408.773
1482.94	431.174
1483.2	413.914
1483.47	387.566
1483.73	390.639
1484	420.091
1484.26	415.001
1484.53	424.987
1484.79	391.277
1485.06	416.201
1485.32	411.599
1485.59	443.773
1485.85	408.058
1486.12	374.548
1486.38	395.935
1486.65	429.54
1486.91	422.003
1487.18	407.019
1487.44	371.613
1487.71	412.03
1487.97	412.951
1488.24	396.691
1488.5	391.566
1488.77	434.001
1489.03	411.633
1489.3	411.558
1489.56	395.325
1489.83	414.516
1490.09	400.326
1490.36	417.523
1490.62	410.437
1490.89	434.666
1491.15	391.094
1491.42	404.164
1491.68	402.105
1491.95	387.935
1492.21	416.243
1492.48	404.13
1492.74	417.261
1493	375.791
1493.27	402.064
1493.53	420.262
1493.8	426.299
1494.06	403.035
1494.33	412.139
1494.59	408.124
1494.86	385.918
1495.12	424.32
1495.39	404.038
1495.65	414.028
1495.92	385.597
1496.18	396.597
1496.45	435.904
1496.71	411.618
1496.97	433.776
1497.24	408.487
1497.5	390.317
1497.77	425.639
1498.03	410.478
1498.3	418.544
1498.56	401.392
1498.82	412.504
1499.09	405.454
1499.35	415.566
1499.62	412.566
1499.88	396.452
1500.15	415.668
1500.41	430.828
1500.68	411.644
1500.94	423.746
1501.2	407.582
1501.47	394.418
1501.73	405.445
1502	390.284
1502.26	411.465
1502.52	419.523
1502.79	402.332
1503.05	383.082
1503.32	398.137
1503.58	431.372
1503.85	398.023
1504.11	381.889
1504.37	423.271
1504.64	415.224
1504.9	432.372
1505.17	396.051
1505.43	425.253
1505.7	412.084
1505.96	410.962
1506.22	408.804
1506.49	423.889
1506.75	397.685
1507.02	418.86
1507.28	396.754
1507.54	401.808
1507.81	425.005
1508.07	411.902
1508.34	378.624
1508.6	419.915
1508.86	422.947
1509.13	401.804
1509.39	404.834
1509.66	411.883
1509.92	415.913
1510.18	418.983
1510.45	402.886
1510.71	386.689
1510.98	381.579
1511.24	403.652
1511.5	415.625
1511.77	409.421
1512.03	400.156
1512.29	388.891
1512.56	398.752
1512.82	399.592
1513.08	407.525
1513.35	394.381
1513.61	389.287
1513.88	422.383
1514.14	389.348
1514.4	413.605
1514.67	382.506
1514.93	390.499
1515.2	403.467
1515.46	381.275
1515.72	397.24
1515.99	404.145
1516.25	414.058
1516.51	369.846
1516.78	416.942
1517.04	412.9
1517.3	383.797
1517.57	369.752
1517.83	391.817
1518.09	407.89
1518.36	418.997
1518.62	394.949
1518.88	382.942
1519.15	401.021
1519.41	412.093
1519.67	411.123
1519.94	441.243
1520.2	403.11
1520.47	400.065
1520.73	401.042
1520.99	386.019
1521.26	399.1
1521.52	401.144
1521.78	400.156
1522.05	425.226
1522.31	395.091
1522.57	394.045
1522.84	399.015
1523.1	398.975
1523.36	399.914
1523.62	406.814
1523.89	392.627
1524.15	416.569
1524.41	417.485
1524.68	424.424
1524.94	420.354
1525.2	383.35
1525.47	376.359
1525.73	392.399
1525.99	424.51
1526.26	394.534
1526.52	409.671
1526.78	397.728
1527.05	388.739
1527.31	405.771
1527.57	408.723
1527.84	405.691
1528.1	382.611
1528.36	388.593
1528.63	407.584
1528.89	384.501
1529.15	381.463
1529.41	403.481
1529.68	415.495
1529.94	399.444
1530.2	386.364
1530.47	375.333
1530.73	402.408
